Temps	Canal A
(us)	(V)

-250.21599140	-1.36112500
-250.13599140	-1.36112500
-250.05599140	-1.36112500
-249.97599140	-1.36112500
-249.89599140	-1.36112500
-249.81599140	-1.36112500
-249.73599140	-1.36112500
-249.65599140	-1.36112500
-249.57599140	-1.36112500
-249.49599140	-1.36112500
-249.41599141	-1.36112500
-249.33599141	-1.36112500
-249.25599141	-1.36112500
-249.17599141	-1.36112500
-249.09599141	-1.36112500
-249.01599141	-1.36112500
-248.93599141	-1.36112500
-248.85599141	-1.18228700
-248.77599141	-1.36112500
-248.69599141	-1.18228700
-248.61599141	-1.18228700
-248.53599141	-1.18228700
-248.45599141	-1.18228700
-248.37599141	-1.18228700
-248.29599141	-1.18228700
-248.21599141	-1.18228700
-248.13599141	-1.18228700
-248.05599141	-1.18228700
-247.97599141	-1.18228700
-247.89599141	-1.18228700
-247.81599141	-1.18228700
-247.73599142	-1.18228700
-247.65599142	-1.18228700
-247.57599142	-1.18228700
-247.49599142	-1.18228700
-247.41599142	-1.18228700
-247.33599142	-1.00283800
-247.25599142	-1.00283800
-247.17599142	-1.00283800
-247.09599142	-1.00283800
-247.01599142	-1.00283800
-246.93599142	-1.00283800
-246.85599142	-1.00283800
-246.77599142	-1.00283800
-246.69599142	-1.00283800
-246.61599142	-1.00283800
-246.53599142	-1.00283800
-246.45599142	-1.00283800
-246.37599142	-1.00283800
-246.29599142	-1.00283800
-246.21599142	-1.00283800
-246.13599142	-1.00283800
-246.05599143	-1.00283800
-245.97599143	-1.00283800
-245.89599143	-0.82399980
-245.81599143	-0.82399980
-245.73599143	-0.82399980
-245.65599143	-0.82399980
-245.57599143	-0.82399980
-245.49599143	-0.82399980
-245.41599143	-0.82399980
-245.33599143	-0.82399980
-245.25599143	-0.82399980
-245.17599143	-0.82399980
-245.09599143	-0.64455090
-245.01599143	-0.64455090
-244.93599143	-0.82399980
-244.85599143	-0.64455090
-244.77599143	-0.64455090
-244.69599143	-0.64455090
-244.61599143	-0.64455090
-244.53599143	-0.64455090
-244.45599144	-0.64455090
-244.37599144	-0.64455090
-244.29599144	-0.64455090
-244.21599144	-0.64455090
-244.13599144	-0.64455090
-244.05599144	-0.64455090
-243.97599144	-0.64455090
-243.89599144	-0.64455090
-243.81599144	-0.64455090
-243.73599144	-0.64455090
-243.65599144	-0.64455090
-243.57599144	-0.64455090
-243.49599144	-0.46571250
-243.41599144	-0.46571250
-243.33599144	-0.46571250
-243.25599144	-0.46571250
-243.17599144	-0.46571250
-243.09599144	-0.46571250
-243.01599144	-0.46571250
-242.93599144	-0.46571250
-242.85599144	-0.46571250
-242.77599145	-0.46571250
-242.69599145	-0.46571250
-242.61599145	-0.46571250
-242.53599145	-0.46571250
-242.45599145	-0.46571250
-242.37599145	-0.46571250
-242.29599145	-0.46571250
-242.21599145	-0.46571250
-242.13599145	-0.46571250
-242.05599145	-0.46571250
-241.97599145	-0.28626360
-241.89599145	-0.46571250
-241.81599145	-0.28626360
-241.73599145	-0.28626360
-241.65599145	-0.28626360
-241.57599145	-0.28626360
-241.49599145	-0.28626360
-241.41599145	-0.28626360
-241.33599145	-0.28626360
-241.25599145	-0.28626360
-241.17599146	-0.28626360
-241.09599146	-0.28626360
-241.01599146	-0.28626360
-240.93599146	-0.28626360
-240.85599146	-0.28626360
-240.77599146	-0.28626360
-240.69599146	-0.28626360
-240.61599146	-0.28626360
-240.53599146	-0.28626360
-240.45599146	-0.10742520
-240.37599146	-0.10742520
-240.29599146	-0.10742520
-240.21599146	-0.10742520
-240.13599146	-0.28626360
-240.05599146	-0.10742520
-239.97599146	-0.10742520
-239.89599146	-0.10742520
-239.81599146	-0.10742520
-239.73599146	-0.10742520
-239.65599146	-0.10742520
-239.57599146	-0.10742520
-239.49599147	0.07202368
-239.41599147	0.07202368
-239.33599147	0.07202368
-239.25599147	0.07202368
-239.17599147	0.07202368
-239.09599147	0.07202368
-239.01599147	0.07202368
-238.93599147	0.07202368
-238.85599147	0.07202368
-238.77599147	0.07202368
-238.69599147	0.07202368
-238.61599147	0.07202368
-238.53599147	0.07202368
-238.45599147	0.07202368
-238.37599147	0.07202368
-238.29599147	0.07202368
-238.21599147	0.07202368
-238.13599147	0.07202368
-238.05599147	0.07202368
-237.97599147	0.07202368
-237.89599148	0.25086220
-237.81599148	0.25086220
-237.73599148	0.07202368
-237.65599148	0.25086220
-237.57599148	0.25086220
-237.49599148	0.25086220
-237.41599148	0.25086220
-237.33599148	0.25086220
-237.25599148	0.25086220
-237.17599148	0.25086220
-237.09599148	0.25086220
-237.01599148	0.25086220
-236.93599148	0.25086220
-236.85599148	0.25086220
-236.77599148	0.25086220
-236.69599148	0.25086220
-236.61599148	0.25086220
-236.53599148	0.25086220
-236.45599148	0.25086220
-236.37599148	0.25086220
-236.29599148	0.42970060
-236.21599149	0.42970060
-236.13599149	0.42970060
-236.05599149	0.42970060
-235.97599149	0.42970060
-235.89599149	0.42970060
-235.81599149	0.42970060
-235.73599149	0.42970060
-235.65599149	0.42970060
-235.57599149	0.42970060
-235.49599149	0.42970060
-235.41599149	0.42970060
-235.33599149	0.60853910
-235.25599149	0.42970060
-235.17599149	0.42970060
-235.09599149	0.60853910
-235.01599149	0.60853910
-234.93599149	0.60853910
-234.85599149	0.42970060
-234.77599149	0.60853910
-234.69599149	0.60853910
-234.61599149	0.60853910
-234.53599150	0.60853910
-234.45599150	0.60853910
-234.37599150	0.60853910
-234.29599150	0.78737750
-234.21599150	0.60853910
-234.13599150	0.78737750
-234.05599150	0.60853910
-233.97599150	0.78737750
-233.89599150	0.78737750
-233.81599150	0.78737750
-233.73599150	0.78737750
-233.65599150	0.78737750
-233.57599150	0.78737750
-233.49599150	0.78737750
-233.41599150	0.78737750
-233.33599150	0.78737750
-233.25599150	0.78737750
-233.17599150	0.78737750
-233.09599150	0.78737750
-233.01599150	0.96682640
-232.93599151	0.78737750
-232.85599151	0.78737750
-232.77599151	0.78737750
-232.69599151	0.96682640
-232.61599151	0.96682640
-232.53599151	0.96682640
-232.45599151	0.96682640
-232.37599151	0.96682640
-232.29599151	0.96682640
-232.21599151	0.96682640
-232.13599151	0.96682640
-232.05599151	0.96682640
-231.97599151	0.96682640
-231.89599151	0.96682640
-231.81599151	0.96682640
-231.73599151	1.14566500
-231.65599151	1.14566500
-231.57599151	1.14566500
-231.49599151	0.96682640
-231.41599151	1.14566500
-231.33599151	1.14566500
-231.25599152	1.14566500
-231.17599152	1.14566500
-231.09599152	0.96682640
-231.01599152	1.14566500
-230.93599152	1.14566500
-230.85599152	1.32511400
-230.77599152	1.14566500
-230.69599152	1.14566500
-230.61599152	1.14566500
-230.53599152	1.32511400
-230.45599152	1.14566500
-230.37599152	1.32511400
-230.29599152	1.32511400
-230.21599152	1.32511400
-230.13599152	1.32511400
-230.05599152	1.32511400
-229.97599152	1.32511400
-229.89599152	1.50395200
-229.81599152	1.32511400
-229.73599152	1.32511400
-229.65599153	1.50395200
-229.57599153	1.50395200
-229.49599153	1.50395200
-229.41599153	1.50395200
-229.33599153	1.50395200
-229.25599153	1.50395200
-229.17599153	1.50395200
-229.09599153	1.50395200
-229.01599153	1.50395200
-228.93599153	1.50395200
-228.85599153	1.50395200
-228.77599153	1.50395200
-228.69599153	1.50395200
-228.61599153	1.50395200
-228.53599153	1.50395200
-228.45599153	1.50395200
-228.37599153	1.50395200
-228.29599153	1.50395200
-228.21599153	1.50395200
-228.13599153	1.50395200
-228.05599153	1.50395200
-227.97599154	1.50395200
-227.89599154	1.68340100
-227.81599154	1.50395200
-227.73599154	1.68340100
-227.65599154	1.68340100
-227.57599154	1.68340100
-227.49599154	1.68340100
-227.41599154	1.68340100
-227.33599154	1.68340100
-227.25599154	1.68340100
-227.17599154	1.68340100
-227.09599154	1.68340100
-227.01599154	1.68340100
-226.93599154	1.68340100
-226.85599154	1.68340100
-226.77599154	1.86223900
-226.69599154	1.86223900
-226.61599154	1.86223900
-226.53599154	1.86223900
-226.45599154	1.86223900
-226.37599155	1.86223900
-226.29599155	1.86223900
-226.21599155	1.86223900
-226.13599155	1.86223900
-226.05599155	1.86223900
-225.97599155	1.86223900
-225.89599155	1.86223900
-225.81599155	1.86223900
-225.73599155	1.86223900
-225.65599155	1.86223900
-225.57599155	1.86223900
-225.49599155	2.04168800
-225.41599155	1.86223900
-225.33599155	1.86223900
-225.25599155	1.86223900
-225.17599155	2.04168800
-225.09599155	2.04168800
-225.01599155	2.04168800
-224.93599155	2.04168800
-224.85599155	2.04168800
-224.77599155	2.04168800
-224.69599156	2.04168800
-224.61599156	2.04168800
-224.53599156	2.22052700
-224.45599156	2.04168800
-224.37599156	2.04168800
-224.29599156	2.04168800
-224.21599156	2.22052700
-224.13599156	2.04168800
-224.05599156	2.22052700
-223.97599156	2.04168800
-223.89599156	2.22052700
-223.81599156	2.22052700
-223.73599156	2.22052700
-223.65599156	2.22052700
-223.57599156	2.22052700
-223.49599156	2.22052700
-223.41599156	2.22052700
-223.33599156	2.22052700
-223.25599156	2.22052700
-223.17599156	2.22052700
-223.09599157	2.22052700
-223.01599157	2.22052700
-222.93599157	2.39997600
-222.85599157	2.39997600
-222.77599157	2.39997600
-222.69599157	2.22052700
-222.61599157	2.22052700
-222.53599157	2.39997600
-222.45599157	2.39997600
-222.37599157	2.39997600
-222.29599157	2.39997600
-222.21599157	2.39997600
-222.13599157	2.39997600
-222.05599157	2.39997600
-221.97599157	2.39997600
-221.89599157	2.39997600
-221.81599157	2.39997600
-221.73599157	2.57881400
-221.65599157	2.39997600
-221.57599157	2.39997600
-221.49599157	2.57881400
-221.41599158	2.57881400
-221.33599158	2.57881400
-221.25599158	2.57881400
-221.17599158	2.57881400
-221.09599158	2.57881400
-221.01599158	2.57881400
-220.93599158	2.57881400
-220.85599158	2.57881400
-220.77599158	2.57881400
-220.69599158	2.57881400
-220.61599158	2.57881400
-220.53599158	2.57881400
-220.45599158	2.57881400
-220.37599158	2.57881400
-220.29599158	2.57881400
-220.21599158	2.75826300
-220.13599158	2.57881400
-220.05599158	2.75826300
-219.97599158	2.75826300
-219.89599158	2.57881400
-219.81599158	2.75826300
-219.73599159	2.75826300
-219.65599159	2.57881400
-219.57599159	2.75826300
-219.49599159	2.75826300
-219.41599159	2.75826300
-219.33599159	2.75826300
-219.25599159	2.75826300
-219.17599159	2.75826300
-219.09599159	2.75826300
-219.01599159	2.75826300
-218.93599159	2.75826300
-218.85599159	2.93710100
-218.77599159	2.93710100
-218.69599159	2.75826300
-218.61599159	2.93710100
-218.53599159	2.93710100
-218.45599159	2.93710100
-218.37599159	2.93710100
-218.29599159	2.93710100
-218.21599159	2.93710100
-218.13599160	2.93710100
-218.05599160	2.93710100
-217.97599160	2.93710100
-217.89599160	2.93710100
-217.81599160	2.93710100
-217.73599160	2.93710100
-217.65599160	2.93710100
-217.57599160	2.93710100
-217.49599160	2.93710100
-217.41599160	2.93710100
-217.33599160	2.93710100
-217.25599160	2.93710100
-217.17599160	3.11655000
-217.09599160	3.11655000
-217.01599160	3.11655000
-216.93599160	3.11655000
-216.85599160	3.11655000
-216.77599160	3.11655000
-216.69599160	3.11655000
-216.61599160	3.11655000
-216.53599160	3.11655000
-216.45599161	3.11655000
-216.37599161	3.11655000
-216.29599161	3.11655000
-216.21599161	3.11655000
-216.13599161	3.11655000
-216.05599161	3.11655000
-215.97599161	3.11655000
-215.89599161	3.11655000
-215.81599161	3.11655000
-215.73599161	3.11655000
-215.65599161	3.29538900
-215.57599161	3.29538900
-215.49599161	3.29538900
-215.41599161	3.29538900
-215.33599161	3.29538900
-215.25599161	3.29538900
-215.17599161	3.29538900
-215.09599161	3.29538900
-215.01599161	3.29538900
-214.93599161	3.29538900
-214.85599162	3.29538900
-214.77599162	3.29538900
-214.69599162	3.29538900
-214.61599162	3.29538900
-214.53599162	3.29538900
-214.45599162	3.29538900
-214.37599162	3.47483800
-214.29599162	3.29538900
-214.21599162	3.47483800
-214.13599162	3.47483800
-214.05599162	3.47483800
-213.97599162	3.47483800
-213.89599162	3.29538900
-213.81599162	3.47483800
-213.73599162	3.47483800
-213.65599162	3.47483800
-213.57599162	3.47483800
-213.49599162	3.47483800
-213.41599162	3.47483800
-213.33599162	3.47483800
-213.25599162	3.47483800
-213.17599163	3.47483800
-213.09599163	3.47483800
-213.01599163	3.47483800
-212.93599163	3.47483800
-212.85599163	3.65367600
-212.77599163	3.65367600
-212.69599163	3.65367600
-212.61599163	3.65367600
-212.53599163	3.65367600
-212.45599163	3.65367600
-212.37599163	3.65367600
-212.29599163	3.65367600
-212.21599163	3.65367600
-212.13599163	3.65367600
-212.05599163	3.65367600
-211.97599163	3.65367600
-211.89599163	3.65367600
-211.81599163	3.65367600
-211.73599163	3.65367600
-211.65599163	3.65367600
-211.57599164	3.65367600
-211.49599164	3.65367600
-211.41599164	3.65367600
-211.33599164	3.65367600
-211.25599164	3.83312500
-211.17599164	3.65367600
-211.09599164	3.83312500
-211.01599164	3.83312500
-210.93599164	3.83312500
-210.85599164	3.83312500
-210.77599164	3.83312500
-210.69599164	3.83312500
-210.61599164	3.83312500
-210.53599164	3.83312500
-210.45599164	3.83312500
-210.37599164	3.83312500
-210.29599164	3.83312500
-210.21599164	3.83312500
-210.13599164	3.83312500
-210.05599164	3.83312500
-209.97599164	3.83312500
-209.89599165	3.83312500
-209.81599165	3.83312500
-209.73599165	3.83312500
-209.65599165	3.83312500
-209.57599165	3.83312500
-209.49599165	3.83312500
-209.41599165	4.01196300
-209.33599165	4.01196300
-209.25599165	3.83312500
-209.17599165	4.01196300
-209.09599165	4.01196300
-209.01599165	4.01196300
-208.93599165	4.01196300
-208.85599165	4.01196300
-208.77599165	4.01196300
-208.69599165	4.01196300
-208.61599165	4.01196300
-208.53599165	4.01196300
-208.45599165	4.01196300
-208.37599165	4.01196300
-208.29599165	4.01196300
-208.21599166	4.01196300
-208.13599166	4.01196300
-208.05599166	4.01196300
-207.97599166	4.01196300
-207.89599166	4.01196300
-207.81599166	4.19141200
-207.73599166	4.19141200
-207.65599166	4.19141200
-207.57599166	4.19141200
-207.49599166	4.19141200
-207.41599166	4.19141200
-207.33599166	4.19141200
-207.25599166	4.19141200
-207.17599166	4.19141200
-207.09599166	4.19141200
-207.01599166	4.19141200
-206.93599166	4.19141200
-206.85599166	4.19141200
-206.77599166	4.19141200
-206.69599166	4.19141200
-206.61599167	4.37025100
-206.53599167	4.37025100
-206.45599167	4.37025100
-206.37599167	4.37025100
-206.29599167	4.37025100
-206.21599167	4.19141200
-206.13599167	4.37025100
-206.05599167	4.37025100
-205.97599167	4.37025100
-205.89599167	4.37025100
-205.81599167	4.37025100
-205.73599167	4.37025100
-205.65599167	4.37025100
-205.57599167	4.37025100
-205.49599167	4.37025100
-205.41599167	4.37025100
-205.33599167	4.37025100
-205.25599167	4.37025100
-205.17599167	4.37025100
-205.09599167	4.37025100
-205.01599167	4.37025100
-204.93599168	4.54969900
-204.85599168	4.37025100
-204.77599168	4.37025100
-204.69599168	4.37025100
-204.61599168	4.37025100
-204.53599168	4.37025100
-204.45599168	4.37025100
-204.37599168	4.54969900
-204.29599168	4.54969900
-204.21599168	4.54969900
-204.13599168	4.54969900
-204.05599168	4.54969900
-203.97599168	4.54969900
-203.89599168	4.54969900
-203.81599168	4.54969900
-203.73599168	4.54969900
-203.65599168	4.54969900
-203.57599168	4.54969900
-203.49599168	4.54969900
-203.41599168	4.54969900
-203.33599169	4.54969900
-203.25599169	4.54969900
-203.17599169	4.54969900
-203.09599169	4.54969900
-203.01599169	4.72853800
-202.93599169	4.54969900
-202.85599169	4.54969900
-202.77599169	4.54969900
-202.69599169	4.72853800
-202.61599169	4.72853800
-202.53599169	4.54969900
-202.45599169	4.54969900
-202.37599169	4.72853800
-202.29599169	4.72853800
-202.21599169	4.72853800
-202.13599169	4.72853800
-202.05599169	4.72853800
-201.97599169	4.72853800
-201.89599169	4.72853800
-201.81599169	4.72853800
-201.73599169	4.72853800
-201.65599170	4.72853800
-201.57599170	4.72853800
-201.49599170	4.72853800
-201.41599170	4.72853800
-201.33599170	4.72853800
-201.25599170	4.72853800
-201.17599170	4.72853800
-201.09599170	4.72853800
-201.01599170	4.72853800
-200.93599170	4.72853800
-200.85599170	4.72853800
-200.77599170	4.90798700
-200.69599170	4.72853800
-200.61599170	4.72853800
-200.53599170	4.72853800
-200.45599170	4.72853800
-200.37599170	4.90798700
-200.29599170	4.90798700
-200.21599170	4.72853800
-200.13599170	4.90798700
-200.05599171	4.90798700
-199.97599171	4.90798700
-199.89599171	4.90798700
-199.81599171	4.72853800
-199.73599171	4.90798700
-199.65599171	4.90798700
-199.57599171	4.90798700
-199.49599171	5.08682500
-199.41599171	4.90798700
-199.33599171	4.90798700
-199.25599171	4.90798700
-199.17599171	4.90798700
-199.09599171	4.90798700
-199.01599171	4.90798700
-198.93599171	4.90798700
-198.85599171	5.08682500
-198.77599171	5.08682500
-198.69599171	4.90798700
-198.61599171	5.08682500
-198.53599171	4.90798700
-198.45599171	4.90798700
-198.37599172	5.08682500
-198.29599172	5.08682500
-198.21599172	5.08682500
-198.13599172	5.08682500
-198.05599172	5.08682500
-197.97599172	5.08682500
-197.89599172	5.08682500
-197.81599172	5.08682500
-197.73599172	5.08682500
-197.65599172	5.08682500
-197.57599172	5.08682500
-197.49599172	5.08682500
-197.41599172	5.08682500
-197.33599172	5.08682500
-197.25599172	5.08682500
-197.17599172	5.08682500
-197.09599172	5.08682500
-197.01599172	5.08682500
-196.93599172	5.08682500
-196.85599172	5.08682500
-196.77599172	5.08682500
-196.69599173	5.08682500
-196.61599173	5.08682500
-196.53599173	5.08682500
-196.45599173	5.08682500
-196.37599173	5.08682500
-196.29599173	5.08682500
-196.21599173	5.08682500
-196.13599173	5.08682500
-196.05599173	5.08682500
-195.97599173	5.08682500
-195.89599173	5.26627400
-195.81599173	5.08682500
-195.73599173	5.08682500
-195.65599173	5.26627400
-195.57599173	5.08682500
-195.49599173	5.26627400
-195.41599173	5.08682500
-195.33599173	5.26627400
-195.25599173	5.26627400
-195.17599173	5.26627400
-195.09599174	5.26627400
-195.01599174	5.26627400
-194.93599174	5.26627400
-194.85599174	5.26627400
-194.77599174	5.26627400
-194.69599174	5.26627400
-194.61599174	5.26627400
-194.53599174	5.26627400
-194.45599174	5.26627400
-194.37599174	5.26627400
-194.29599174	5.26627400
-194.21599174	5.26627400
-194.13599174	5.26627400
-194.05599174	5.26627400
-193.97599174	5.26627400
-193.89599174	5.26627400
-193.81599174	5.26627400
-193.73599174	5.26627400
-193.65599174	5.26627400
-193.57599174	5.26627400
-193.49599174	5.26627400
-193.41599175	5.26627400
-193.33599175	5.26627400
-193.25599175	5.26627400
-193.17599175	5.26627400
-193.09599175	5.26627400
-193.01599175	5.26627400
-192.93599175	5.26627400
-192.85599175	5.26627400
-192.77599175	5.26627400
-192.69599175	5.26627400
-192.61599175	5.26627400
-192.53599175	5.26627400
-192.45599175	5.26627400
-192.37599175	5.26627400
-192.29599175	5.44511200
-192.21599175	5.26627400
-192.13599175	5.26627400
-192.05599175	5.26627400
-191.97599175	5.44511200
-191.89599175	5.44511200
-191.81599176	5.26627400
-191.73599176	5.44511200
-191.65599176	5.44511200
-191.57599176	5.44511200
-191.49599176	5.26627400
-191.41599176	5.26627400
-191.33599176	5.44511200
-191.25599176	5.26627400
-191.17599176	5.44511200
-191.09599176	5.44511200
-191.01599176	5.44511200
-190.93599176	5.44511200
-190.85599176	5.44511200
-190.77599176	5.44511200
-190.69599176	5.44511200
-190.61599176	5.44511200
-190.53599176	5.44511200
-190.45599176	5.44511200
-190.37599176	5.44511200
-190.29599176	5.44511200
-190.21599176	5.44511200
-190.13599177	5.44511200
-190.05599177	5.44511200
-189.97599177	5.44511200
-189.89599177	5.44511200
-189.81599177	5.44511200
-189.73599177	5.44511200
-189.65599177	5.44511200
-189.57599177	5.44511200
-189.49599177	5.44511200
-189.41599177	5.44511200
-189.33599177	5.44511200
-189.25599177	5.44511200
-189.17599177	5.44511200
-189.09599177	5.44511200
-189.01599177	5.44511200
-188.93599177	5.44511200
-188.85599177	5.44511200
-188.77599177	5.44511200
-188.69599177	5.44511200
-188.61599177	5.44511200
-188.53599178	5.44511200
-188.45599178	5.44511200
-188.37599178	5.44511200
-188.29599178	5.44511200
-188.21599178	5.44511200
-188.13599178	5.44511200
-188.05599178	5.44511200
-187.97599178	5.44511200
-187.89599178	5.44511200
-187.81599178	5.62456100
-187.73599178	5.44511200
-187.65599178	5.62456100
-187.57599178	5.44511200
-187.49599178	5.62456100
-187.41599178	5.44511200
-187.33599178	5.62456100
-187.25599178	5.44511200
-187.17599178	5.44511200
-187.09599178	5.44511200
-187.01599178	5.62456100
-186.93599178	5.44511200
-186.85599179	5.44511200
-186.77599179	5.62456100
-186.69599179	5.44511200
-186.61599179	5.62456100
-186.53599179	5.62456100
-186.45599179	5.62456100
-186.37599179	5.62456100
-186.29599179	5.62456100
-186.21599179	5.62456100
-186.13599179	5.62456100
-186.05599179	5.62456100
-185.97599179	5.62456100
-185.89599179	5.62456100
-185.81599179	5.62456100
-185.73599179	5.44511200
-185.65599179	5.62456100
-185.57599179	5.62456100
-185.49599179	5.62456100
-185.41599179	5.44511200
-185.33599179	5.62456100
-185.25599179	5.62456100
-185.17599180	5.62456100
-185.09599180	5.62456100
-185.01599180	5.62456100
-184.93599180	5.62456100
-184.85599180	5.62456100
-184.77599180	5.62456100
-184.69599180	5.62456100
-184.61599180	5.62456100
-184.53599180	5.62456100
-184.45599180	5.62456100
-184.37599180	5.62456100
-184.29599180	5.62456100
-184.21599180	5.62456100
-184.13599180	5.62456100
-184.05599180	5.62456100
-183.97599180	5.62456100
-183.89599180	5.62456100
-183.81599180	5.62456100
-183.73599180	5.62456100
-183.65599180	5.62456100
-183.57599181	5.62456100
-183.49599181	5.62456100
-183.41599181	5.62456100
-183.33599181	5.62456100
-183.25599181	5.62456100
-183.17599181	5.62456100
-183.09599181	5.62456100
-183.01599181	5.62456100
-182.93599181	5.62456100
-182.85599181	5.80340000
-182.77599181	5.62456100
-182.69599181	5.62456100
-182.61599181	5.62456100
-182.53599181	5.62456100
-182.45599181	5.62456100
-182.37599181	5.62456100
-182.29599181	5.62456100
-182.21599181	5.62456100
-182.13599181	5.62456100
-182.05599181	5.62456100
-181.97599181	5.62456100
-181.89599182	5.62456100
-181.81599182	5.62456100
-181.73599182	5.62456100
-181.65599182	5.80340000
-181.57599182	5.80340000
-181.49599182	5.62456100
-181.41599182	5.80340000
-181.33599182	5.62456100
-181.25599182	5.62456100
-181.17599182	5.62456100
-181.09599182	5.62456100
-181.01599182	5.62456100
-180.93599182	5.62456100
-180.85599182	5.62456100
-180.77599182	5.62456100
-180.69599182	5.62456100
-180.61599182	5.80340000
-180.53599182	5.62456100
-180.45599182	5.62456100
-180.37599182	5.62456100
-180.29599183	5.62456100
-180.21599183	5.62456100
-180.13599183	5.62456100
-180.05599183	5.62456100
-179.97599183	5.62456100
-179.89599183	5.62456100
-179.81599183	5.62456100
-179.73599183	5.62456100
-179.65599183	5.62456100
-179.57599183	5.62456100
-179.49599183	5.62456100
-179.41599183	5.80340000
-179.33599183	5.62456100
-179.25599183	5.62456100
-179.17599183	5.62456100
-179.09599183	5.62456100
-179.01599183	5.62456100
-178.93599183	5.62456100
-178.85599183	5.62456100
-178.77599183	5.80340000
-178.69599183	5.62456100
-178.61599184	5.62456100
-178.53599184	5.62456100
-178.45599184	5.62456100
-178.37599184	5.62456100
-178.29599184	5.62456100
-178.21599184	5.62456100
-178.13599184	5.80340000
-178.05599184	5.62456100
-177.97599184	5.62456100
-177.89599184	5.80340000
-177.81599184	5.62456100
-177.73599184	5.62456100
-177.65599184	5.62456100
-177.57599184	5.62456100
-177.49599184	5.44511200
-177.41599184	5.62456100
-177.33599184	5.62456100
-177.25599184	5.62456100
-177.17599184	5.44511200
-177.09599184	5.62456100
-177.01599185	5.62456100
-176.93599185	5.62456100
-176.85599185	5.62456100
-176.77599185	5.80340000
-176.69599185	5.62456100
-176.61599185	5.62456100
-176.53599185	5.62456100
-176.45599185	5.62456100
-176.37599185	5.62456100
-176.29599185	5.62456100
-176.21599185	5.62456100
-176.13599185	5.62456100
-176.05599185	5.62456100
-175.97599185	5.44511200
-175.89599185	5.62456100
-175.81599185	5.62456100
-175.73599185	5.62456100
-175.65599185	5.62456100
-175.57599185	5.62456100
-175.49599185	5.62456100
-175.41599185	5.62456100
-175.33599186	5.62456100
-175.25599186	5.62456100
-175.17599186	5.62456100
-175.09599186	5.62456100
-175.01599186	5.62456100
-174.93599186	5.62456100
-174.85599186	5.44511200
-174.77599186	5.62456100
-174.69599186	5.62456100
-174.61599186	5.62456100
-174.53599186	5.62456100
-174.45599186	5.62456100
-174.37599186	5.62456100
-174.29599186	5.62456100
-174.21599186	5.44511200
-174.13599186	5.44511200
-174.05599186	5.62456100
-173.97599186	5.62456100
-173.89599186	5.62456100
-173.81599186	5.62456100
-173.73599186	5.62456100
-173.65599187	5.62456100
-173.57599187	5.44511200
-173.49599187	5.44511200
-173.41599187	5.44511200
-173.33599187	5.44511200
-173.25599187	5.62456100
-173.17599187	5.62456100
-173.09599187	5.44511200
-173.01599187	5.44511200
-172.93599187	5.62456100
-172.85599187	5.44511200
-172.77599187	5.44511200
-172.69599187	5.44511200
-172.61599187	5.62456100
-172.53599187	5.44511200
-172.45599187	5.44511200
-172.37599187	5.44511200
-172.29599187	5.44511200
-172.21599187	5.44511200
-172.13599187	5.62456100
-172.05599188	5.44511200
-171.97599188	5.44511200
-171.89599188	5.44511200
-171.81599188	5.44511200
-171.73599188	5.62456100
-171.65599188	5.44511200
-171.57599188	5.44511200
-171.49599188	5.44511200
-171.41599188	5.44511200
-171.33599188	5.44511200
-171.25599188	5.44511200
-171.17599188	5.44511200
-171.09599188	5.44511200
-171.01599188	5.44511200
-170.93599188	5.44511200
-170.85599188	5.44511200
-170.77599188	5.44511200
-170.69599188	5.44511200
-170.61599188	5.44511200
-170.53599188	5.44511200
-170.45599188	5.44511200
-170.37599189	5.44511200
-170.29599189	5.44511200
-170.21599189	5.44511200
-170.13599189	5.44511200
-170.05599189	5.44511200
-169.97599189	5.44511200
-169.89599189	5.44511200
-169.81599189	5.44511200
-169.73599189	5.44511200
-169.65599189	5.44511200
-169.57599189	5.44511200
-169.49599189	5.44511200
-169.41599189	5.44511200
-169.33599189	5.26627400
-169.25599189	5.44511200
-169.17599189	5.44511200
-169.09599189	5.44511200
-169.01599189	5.26627400
-168.93599189	5.44511200
-168.85599189	5.44511200
-168.77599190	5.44511200
-168.69599190	5.44511200
-168.61599190	5.26627400
-168.53599190	5.26627400
-168.45599190	5.44511200
-168.37599190	5.26627400
-168.29599190	5.44511200
-168.21599190	5.44511200
-168.13599190	5.44511200
-168.05599190	5.26627400
-167.97599190	5.26627400
-167.89599190	5.26627400
-167.81599190	5.26627400
-167.73599190	5.26627400
-167.65599190	5.26627400
-167.57599190	5.26627400
-167.49599190	5.26627400
-167.41599190	5.26627400
-167.33599190	5.26627400
-167.25599190	5.26627400
-167.17599190	5.26627400
-167.09599191	5.26627400
-167.01599191	5.26627400
-166.93599191	5.26627400
-166.85599191	5.26627400
-166.77599191	5.26627400
-166.69599191	5.26627400
-166.61599191	5.26627400
-166.53599191	5.26627400
-166.45599191	5.26627400
-166.37599191	5.26627400
-166.29599191	5.26627400
-166.21599191	5.26627400
-166.13599191	5.26627400
-166.05599191	5.26627400
-165.97599191	5.26627400
-165.89599191	5.26627400
-165.81599191	5.26627400
-165.73599191	5.26627400
-165.65599191	5.08682500
-165.57599191	5.08682500
-165.49599192	5.08682500
-165.41599192	5.08682500
-165.33599192	5.26627400
-165.25599192	5.26627400
-165.17599192	5.26627400
-165.09599192	5.08682500
-165.01599192	5.08682500
-164.93599192	5.08682500
-164.85599192	5.08682500
-164.77599192	5.08682500
-164.69599192	5.08682500
-164.61599192	5.08682500
-164.53599192	5.08682500
-164.45599192	5.08682500
-164.37599192	5.08682500
-164.29599192	5.08682500
-164.21599192	5.08682500
-164.13599192	5.08682500
-164.05599192	5.08682500
-163.97599192	5.08682500
-163.89599192	5.08682500
-163.81599193	5.08682500
-163.73599193	5.08682500
-163.65599193	5.08682500
-163.57599193	5.08682500
-163.49599193	5.08682500
-163.41599193	5.08682500
-163.33599193	5.08682500
-163.25599193	5.08682500
-163.17599193	5.08682500
-163.09599193	5.08682500
-163.01599193	5.08682500
-162.93599193	5.08682500
-162.85599193	5.08682500
-162.77599193	4.90798700
-162.69599193	5.08682500
-162.61599193	5.08682500
-162.53599193	5.08682500
-162.45599193	5.08682500
-162.37599193	5.08682500
-162.29599193	5.08682500
-162.21599194	5.08682500
-162.13599194	5.08682500
-162.05599194	4.90798700
-161.97599194	5.08682500
-161.89599194	4.90798700
-161.81599194	5.08682500
-161.73599194	5.08682500
-161.65599194	4.90798700
-161.57599194	4.90798700
-161.49599194	4.90798700
-161.41599194	4.90798700
-161.33599194	4.90798700
-161.25599194	4.90798700
-161.17599194	4.90798700
-161.09599194	4.90798700
-161.01599194	4.90798700
-160.93599194	4.90798700
-160.85599194	4.90798700
-160.77599194	4.90798700
-160.69599194	4.90798700
-160.61599194	4.90798700
-160.53599195	4.90798700
-160.45599195	4.90798700
-160.37599195	4.90798700
-160.29599195	4.72853800
-160.21599195	4.90798700
-160.13599195	4.90798700
-160.05599195	4.72853800
-159.97599195	4.90798700
-159.89599195	4.72853800
-159.81599195	4.72853800
-159.73599195	4.72853800
-159.65599195	4.72853800
-159.57599195	4.72853800
-159.49599195	4.72853800
-159.41599195	4.72853800
-159.33599195	4.90798700
-159.25599195	4.72853800
-159.17599195	4.72853800
-159.09599195	4.72853800
-159.01599195	4.72853800
-158.93599195	4.72853800
-158.85599196	4.72853800
-158.77599196	4.72853800
-158.69599196	4.72853800
-158.61599196	4.72853800
-158.53599196	4.72853800
-158.45599196	4.72853800
-158.37599196	4.72853800
-158.29599196	4.72853800
-158.21599196	4.72853800
-158.13599196	4.72853800
-158.05599196	4.72853800
-157.97599196	4.72853800
-157.89599196	4.54969900
-157.81599196	4.72853800
-157.73599196	4.54969900
-157.65599196	4.54969900
-157.57599196	4.72853800
-157.49599196	4.54969900
-157.41599196	4.54969900
-157.33599196	4.72853800
-157.25599197	4.54969900
-157.17599197	4.54969900
-157.09599197	4.54969900
-157.01599197	4.54969900
-156.93599197	4.54969900
-156.85599197	4.54969900
-156.77599197	4.54969900
-156.69599197	4.54969900
-156.61599197	4.54969900
-156.53599197	4.54969900
-156.45599197	4.54969900
-156.37599197	4.54969900
-156.29599197	4.54969900
-156.21599197	4.54969900
-156.13599197	4.54969900
-156.05599197	4.54969900
-155.97599197	4.37025100
-155.89599197	4.54969900
-155.81599197	4.37025100
-155.73599197	4.54969900
-155.65599197	4.37025100
-155.57599198	4.54969900
-155.49599198	4.54969900
-155.41599198	4.37025100
-155.33599198	4.37025100
-155.25599198	4.37025100
-155.17599198	4.37025100
-155.09599198	4.37025100
-155.01599198	4.37025100
-154.93599198	4.37025100
-154.85599198	4.37025100
-154.77599198	4.37025100
-154.69599198	4.37025100
-154.61599198	4.37025100
-154.53599198	4.37025100
-154.45599198	4.37025100
-154.37599198	4.37025100
-154.29599198	4.37025100
-154.21599198	4.37025100
-154.13599198	4.37025100
-154.05599198	4.37025100
-153.97599199	4.37025100
-153.89599199	4.37025100
-153.81599199	4.37025100
-153.73599199	4.37025100
-153.65599199	4.19141200
-153.57599199	4.37025100
-153.49599199	4.37025100
-153.41599199	4.19141200
-153.33599199	4.19141200
-153.25599199	4.19141200
-153.17599199	4.19141200
-153.09599199	4.19141200
-153.01599199	4.19141200
-152.93599199	4.19141200
-152.85599199	4.19141200
-152.77599199	4.19141200
-152.69599199	4.19141200
-152.61599199	4.19141200
-152.53599199	4.19141200
-152.45599199	4.19141200
-152.37599199	4.01196300
-152.29599200	4.19141200
-152.21599200	4.19141200
-152.13599200	4.01196300
-152.05599200	4.19141200
-151.97599200	4.01196300
-151.89599200	4.19141200
-151.81599200	4.01196300
-151.73599200	4.19141200
-151.65599200	4.01196300
-151.57599200	4.01196300
-151.49599200	4.01196300
-151.41599200	4.01196300
-151.33599200	4.01196300
-151.25599200	4.01196300
-151.17599200	4.01196300
-151.09599200	4.01196300
-151.01599200	4.01196300
-150.93599200	4.01196300
-150.85599200	4.01196300
-150.77599200	4.01196300
-150.69599201	3.83312500
-150.61599201	4.01196300
-150.53599201	4.01196300
-150.45599201	4.01196300
-150.37599201	4.01196300
-150.29599201	4.01196300
-150.21599201	4.01196300
-150.13599201	4.01196300
-150.05599201	4.01196300
-149.97599201	3.83312500
-149.89599201	4.01196300
-149.81599201	3.83312500
-149.73599201	3.83312500
-149.65599201	3.83312500
-149.57599201	3.83312500
-149.49599201	3.83312500
-149.41599201	3.83312500
-149.33599201	3.83312500
-149.25599201	3.83312500
-149.17599201	3.83312500
-149.09599201	3.83312500
-149.01599202	3.83312500
-148.93599202	3.83312500
-148.85599202	3.83312500
-148.77599202	3.83312500
-148.69599202	3.83312500
-148.61599202	3.83312500
-148.53599202	3.83312500
-148.45599202	3.83312500
-148.37599202	3.65367600
-148.29599202	3.65367600
-148.21599202	3.83312500
-148.13599202	3.65367600
-148.05599202	3.65367600
-147.97599202	3.65367600
-147.89599202	3.65367600
-147.81599202	3.65367600
-147.73599202	3.65367600
-147.65599202	3.65367600
-147.57599202	3.65367600
-147.49599202	3.65367600
-147.41599202	3.65367600
-147.33599203	3.65367600
-147.25599203	3.65367600
-147.17599203	3.65367600
-147.09599203	3.65367600
-147.01599203	3.65367600
-146.93599203	3.65367600
-146.85599203	3.65367600
-146.77599203	3.65367600
-146.69599203	3.65367600
-146.61599203	3.65367600
-146.53599203	3.47483800
-146.45599203	3.47483800
-146.37599203	3.47483800
-146.29599203	3.47483800
-146.21599203	3.47483800
-146.13599203	3.47483800
-146.05599203	3.47483800
-145.97599203	3.47483800
-145.89599203	3.47483800
-145.81599203	3.47483800
-145.73599204	3.47483800
-145.65599204	3.47483800
-145.57599204	3.29538900
-145.49599204	3.29538900
-145.41599204	3.47483800
-145.33599204	3.47483800
-145.25599204	3.29538900
-145.17599204	3.29538900
-145.09599204	3.29538900
-145.01599204	3.47483800
-144.93599204	3.29538900
-144.85599204	3.29538900
-144.77599204	3.29538900
-144.69599204	3.29538900
-144.61599204	3.29538900
-144.53599204	3.29538900
-144.45599204	3.29538900
-144.37599204	3.29538900
-144.29599204	3.29538900
-144.21599204	3.29538900
-144.13599204	3.11655000
-144.05599205	3.29538900
-143.97599205	3.11655000
-143.89599205	3.11655000
-143.81599205	3.29538900
-143.73599205	3.29538900
-143.65599205	3.11655000
-143.57599205	3.11655000
-143.49599205	3.11655000
-143.41599205	3.11655000
-143.33599205	3.11655000
-143.25599205	3.11655000
-143.17599205	3.11655000
-143.09599205	3.11655000
-143.01599205	3.11655000
-142.93599205	3.11655000
-142.85599205	3.11655000
-142.77599205	3.11655000
-142.69599205	3.11655000
-142.61599205	3.11655000
-142.53599205	3.11655000
-142.45599206	3.11655000
-142.37599206	3.11655000
-142.29599206	3.11655000
-142.21599206	3.11655000
-142.13599206	2.93710100
-142.05599206	2.93710100
-141.97599206	3.11655000
-141.89599206	2.93710100
-141.81599206	2.93710100
-141.73599206	2.93710100
-141.65599206	2.93710100
-141.57599206	2.93710100
-141.49599206	2.93710100
-141.41599206	2.93710100
-141.33599206	2.93710100
-141.25599206	2.93710100
-141.17599206	2.93710100
-141.09599206	2.93710100
-141.01599206	2.93710100
-140.93599206	2.93710100
-140.85599206	2.93710100
-140.77599207	2.93710100
-140.69599207	2.93710100
-140.61599207	2.93710100
-140.53599207	2.75826300
-140.45599207	2.93710100
-140.37599207	2.75826300
-140.29599207	2.93710100
-140.21599207	2.93710100
-140.13599207	2.93710100
-140.05599207	2.93710100
-139.97599207	2.93710100
-139.89599207	2.75826300
-139.81599207	2.75826300
-139.73599207	2.75826300
-139.65599207	2.75826300
-139.57599207	2.57881400
-139.49599207	2.75826300
-139.41599207	2.75826300
-139.33599207	2.75826300
-139.25599207	2.75826300
-139.17599208	2.57881400
-139.09599208	2.75826300
-139.01599208	2.57881400
-138.93599208	2.57881400
-138.85599208	2.57881400
-138.77599208	2.57881400
-138.69599208	2.57881400
-138.61599208	2.57881400
-138.53599208	2.57881400
-138.45599208	2.57881400
-138.37599208	2.57881400
-138.29599208	2.57881400
-138.21599208	2.57881400
-138.13599208	2.57881400
-138.05599208	2.57881400
-137.97599208	2.57881400
-137.89599208	2.57881400
-137.81599208	2.39997600
-137.73599208	2.57881400
-137.65599208	2.39997600
-137.57599208	2.39997600
-137.49599209	2.39997600
-137.41599209	2.39997600
-137.33599209	2.39997600
-137.25599209	2.39997600
-137.17599209	2.39997600
-137.09599209	2.39997600
-137.01599209	2.39997600
-136.93599209	2.39997600
-136.85599209	2.39997600
-136.77599209	2.39997600
-136.69599209	2.39997600
-136.61599209	2.39997600
-136.53599209	2.39997600
-136.45599209	2.39997600
-136.37599209	2.39997600
-136.29599209	2.22052700
-136.21599209	2.22052700
-136.13599209	2.22052700
-136.05599209	2.22052700
-135.97599209	2.22052700
-135.89599209	2.22052700
-135.81599210	2.22052700
-135.73599210	2.22052700
-135.65599210	2.22052700
-135.57599210	2.22052700
-135.49599210	2.22052700
-135.41599210	2.22052700
-135.33599210	2.22052700
-135.25599210	2.22052700
-135.17599210	2.22052700
-135.09599210	2.22052700
-135.01599210	2.22052700
-134.93599210	2.22052700
-134.85599210	2.22052700
-134.77599210	2.22052700
-134.69599210	2.22052700
-134.61599210	2.22052700
-134.53599210	2.22052700
-134.45599210	2.04168800
-134.37599210	2.04168800
-134.29599210	2.04168800
-134.21599211	2.22052700
-134.13599211	2.04168800
-134.05599211	2.04168800
-133.97599211	2.04168800
-133.89599211	2.04168800
-133.81599211	2.04168800
-133.73599211	2.04168800
-133.65599211	1.86223900
-133.57599211	1.86223900
-133.49599211	2.04168800
-133.41599211	1.86223900
-133.33599211	1.86223900
-133.25599211	1.86223900
-133.17599211	1.86223900
-133.09599211	1.86223900
-133.01599211	1.86223900
-132.93599211	1.86223900
-132.85599211	1.86223900
-132.77599211	1.86223900
-132.69599211	1.86223900
-132.61599211	1.86223900
-132.53599212	1.86223900
-132.45599212	1.86223900
-132.37599212	1.86223900
-132.29599212	1.86223900
-132.21599212	1.68340100
-132.13599212	1.86223900
-132.05599212	1.68340100
-131.97599212	1.68340100
-131.89599212	1.68340100
-131.81599212	1.68340100
-131.73599212	1.68340100
-131.65599212	1.68340100
-131.57599212	1.68340100
-131.49599212	1.68340100
-131.41599212	1.68340100
-131.33599212	1.68340100
-131.25599212	1.68340100
-131.17599212	1.68340100
-131.09599212	1.50395200
-131.01599212	1.68340100
-130.93599213	1.50395200
-130.85599213	1.68340100
-130.77599213	1.50395200
-130.69599213	1.50395200
-130.61599213	1.50395200
-130.53599213	1.50395200
-130.45599213	1.50395200
-130.37599213	1.50395200
-130.29599213	1.50395200
-130.21599213	1.50395200
-130.13599213	1.50395200
-130.05599213	1.50395200
-129.97599213	1.50395200
-129.89599213	1.50395200
-129.81599213	1.50395200
-129.73599213	1.50395200
-129.65599213	1.50395200
-129.57599213	1.50395200
-129.49599213	1.50395200
-129.41599213	1.50395200
-129.33599213	1.50395200
-129.25599214	1.50395200
-129.17599214	1.32511400
-129.09599214	1.32511400
-129.01599214	1.32511400
-128.93599214	1.32511400
-128.85599214	1.50395200
-128.77599214	1.32511400
-128.69599214	1.32511400
-128.61599214	1.50395200
-128.53599214	1.32511400
-128.45599214	1.32511400
-128.37599214	1.14566500
-128.29599214	1.32511400
-128.21599214	1.32511400
-128.13599214	1.32511400
-128.05599214	0.96682640
-127.97599214	1.14566500
-127.89599214	1.14566500
-127.81599214	1.32511400
-127.73599214	1.14566500
-127.65599215	1.14566500
-127.57599215	1.14566500
-127.49599215	1.14566500
-127.41599215	1.14566500
-127.33599215	0.96682640
-127.25599215	1.14566500
-127.17599215	0.96682640
-127.09599215	1.14566500
-127.01599215	1.14566500
-126.93599215	1.14566500
-126.85599215	0.96682640
-126.77599215	1.14566500
-126.69599215	1.14566500
-126.61599215	0.96682640
-126.53599215	0.96682640
-126.45599215	0.96682640
-126.37599215	0.96682640
-126.29599215	0.96682640
-126.21599215	0.96682640
-126.13599215	0.96682640
-126.05599215	0.96682640
-125.97599216	0.78737750
-125.89599216	0.78737750
-125.81599216	0.96682640
-125.73599216	0.78737750
-125.65599216	0.78737750
-125.57599216	0.96682640
-125.49599216	0.78737750
-125.41599216	0.78737750
-125.33599216	0.78737750
-125.25599216	0.78737750
-125.17599216	0.78737750
-125.09599216	0.78737750
-125.01599216	0.78737750
-124.93599216	0.78737750
-124.85599216	0.78737750
-124.77599216	0.78737750
-124.69599216	0.78737750
-124.61599216	0.78737750
-124.53599216	0.78737750
-124.45599216	0.78737750
-124.37599216	0.60853910
-124.29599217	0.78737750
-124.21599217	0.78737750
-124.13599217	0.60853910
-124.05599217	0.60853910
-123.97599217	0.60853910
-123.89599217	0.60853910
-123.81599217	0.60853910
-123.73599217	0.60853910
-123.65599217	0.60853910
-123.57599217	0.60853910
-123.49599217	0.60853910
-123.41599217	0.60853910
-123.33599217	0.42970060
-123.25599217	0.60853910
-123.17599217	0.42970060
-123.09599217	0.42970060
-123.01599217	0.42970060
-122.93599217	0.42970060
-122.85599217	0.42970060
-122.77599217	0.42970060
-122.69599218	0.42970060
-122.61599218	0.60853910
-122.53599218	0.42970060
-122.45599218	0.42970060
-122.37599218	0.42970060
-122.29599218	0.42970060
-122.21599218	0.42970060
-122.13599218	0.42970060
-122.05599218	0.42970060
-121.97599218	0.42970060
-121.89599218	0.42970060
-121.81599218	0.25086220
-121.73599218	0.42970060
-121.65599218	0.42970060
-121.57599218	0.25086220
-121.49599218	0.25086220
-121.41599218	0.25086220
-121.33599218	0.25086220
-121.25599218	0.25086220
-121.17599218	0.25086220
-121.09599218	0.25086220
-121.01599219	0.25086220
-120.93599219	0.25086220
-120.85599219	0.25086220
-120.77599219	0.25086220
-120.69599219	0.25086220
-120.61599219	0.25086220
-120.53599219	0.25086220
-120.45599219	0.07202368
-120.37599219	0.25086220
-120.29599219	0.07202368
-120.21599219	0.25086220
-120.13599219	0.07202368
-120.05599219	0.07202368
-119.97599219	0.07202368
-119.89599219	0.07202368
-119.81599219	0.07202368
-119.73599219	0.07202368
-119.65599219	0.07202368
-119.57599219	0.07202368
-119.49599219	0.07202368
-119.41599220	0.07202368
-119.33599220	0.07202368
-119.25599220	0.07202368
-119.17599220	0.07202368
-119.09599220	0.07202368
-119.01599220	0.07202368
-118.93599220	0.07202368
-118.85599220	0.07202368
-118.77599220	-0.10742520
-118.69599220	-0.10742520
-118.61599220	0.07202368
-118.53599220	0.07202368
-118.45599220	-0.10742520
-118.37599220	0.07202368
-118.29599220	0.07202368
-118.21599220	-0.10742520
-118.13599220	-0.10742520
-118.05599220	-0.10742520
-117.97599220	-0.10742520
-117.89599220	-0.10742520
-117.81599220	-0.28626360
-117.73599221	-0.28626360
-117.65599221	-0.10742520
-117.57599221	-0.28626360
-117.49599221	-0.10742520
-117.41599221	-0.28626360
-117.33599221	-0.28626360
-117.25599221	-0.28626360
-117.17599221	-0.28626360
-117.09599221	-0.28626360
-117.01599221	-0.28626360
-116.93599221	-0.28626360
-116.85599221	-0.28626360
-116.77599221	-0.28626360
-116.69599221	-0.28626360
-116.61599221	-0.28626360
-116.53599221	-0.46571250
-116.45599221	-0.46571250
-116.37599221	-0.46571250
-116.29599221	-0.46571250
-116.21599221	-0.46571250
-116.13599222	-0.46571250
-116.05599222	-0.46571250
-115.97599222	-0.46571250
-115.89599222	-0.46571250
-115.81599222	-0.46571250
-115.73599222	-0.46571250
-115.65599222	-0.46571250
-115.57599222	-0.46571250
-115.49599222	-0.46571250
-115.41599222	-0.46571250
-115.33599222	-0.46571250
-115.25599222	-0.46571250
-115.17599222	-0.46571250
-115.09599222	-0.46571250
-115.01599222	-0.64455090
-114.93599222	-0.64455090
-114.85599222	-0.46571250
-114.77599222	-0.64455090
-114.69599222	-0.64455090
-114.61599222	-0.64455090
-114.53599222	-0.64455090
-114.45599223	-0.64455090
-114.37599223	-0.64455090
-114.29599223	-0.64455090
-114.21599223	-0.64455090
-114.13599223	-0.64455090
-114.05599223	-0.64455090
-113.97599223	-0.64455090
-113.89599223	-0.64455090
-113.81599223	-0.64455090
-113.73599223	-0.82399980
-113.65599223	-0.82399980
-113.57599223	-0.64455090
-113.49599223	-0.82399980
-113.41599223	-0.82399980
-113.33599223	-0.82399980
-113.25599223	-0.82399980
-113.17599223	-0.82399980
-113.09599223	-0.82399980
-113.01599223	-0.82399980
-112.93599223	-0.82399980
-112.85599223	-0.82399980
-112.77599224	-0.82399980
-112.69599224	-0.82399980
-112.61599224	-0.82399980
-112.53599224	-1.00283800
-112.45599224	-1.00283800
-112.37599224	-1.00283800
-112.29599224	-1.00283800
-112.21599224	-1.00283800
-112.13599224	-1.00283800
-112.05599224	-1.00283800
-111.97599224	-1.00283800
-111.89599224	-1.00283800
-111.81599224	-1.00283800
-111.73599224	-1.00283800
-111.65599224	-1.00283800
-111.57599224	-1.00283800
-111.49599224	-1.00283800
-111.41599224	-1.00283800
-111.33599224	-1.00283800
-111.25599224	-1.18228700
-111.17599225	-1.00283800
-111.09599225	-1.18228700
-111.01599225	-1.18228700
-110.93599225	-1.18228700
-110.85599225	-1.18228700
-110.77599225	-1.18228700
-110.69599225	-1.18228700
-110.61599225	-1.18228700
-110.53599225	-1.18228700
-110.45599225	-1.36112500
-110.37599225	-1.18228700
-110.29599225	-1.18228700
-110.21599225	-1.36112500
-110.13599225	-1.36112500
-110.05599225	-1.36112500
-109.97599225	-1.36112500
-109.89599225	-1.36112500
-109.81599225	-1.36112500
-109.73599225	-1.36112500
-109.65599225	-1.36112500
-109.57599225	-1.36112500
-109.49599226	-1.36112500
-109.41599226	-1.36112500
-109.33599226	-1.36112500
-109.25599226	-1.36112500
-109.17599226	-1.36112500
-109.09599226	-1.36112500
-109.01599226	-1.36112500
-108.93599226	-1.36112500
-108.85599226	-1.36112500
-108.77599226	-1.36112500
-108.69599226	-1.36112500
-108.61599226	-1.54057400
-108.53599226	-1.54057400
-108.45599226	-1.36112500
-108.37599226	-1.36112500
-108.29599226	-1.54057400
-108.21599226	-1.54057400
-108.13599226	-1.54057400
-108.05599226	-1.54057400
-107.97599226	-1.71941300
-107.89599227	-1.71941300
-107.81599227	-1.71941300
-107.73599227	-1.71941300
-107.65599227	-1.54057400
-107.57599227	-1.71941300
-107.49599227	-1.71941300
-107.41599227	-1.71941300
-107.33599227	-1.71941300
-107.25599227	-1.71941300
-107.17599227	-1.71941300
-107.09599227	-1.71941300
-107.01599227	-1.71941300
-106.93599227	-1.71941300
-106.85599227	-1.71941300
-106.77599227	-1.71941300
-106.69599227	-1.71941300
-106.61599227	-1.89886200
-106.53599227	-1.71941300
-106.45599227	-1.71941300
-106.37599227	-1.89886200
-106.29599227	-1.89886200
-106.21599228	-1.89886200
-106.13599228	-1.89886200
-106.05599228	-1.89886200
-105.97599228	-1.89886200
-105.89599228	-1.89886200
-105.81599228	-1.89886200
-105.73599228	-1.89886200
-105.65599228	-1.89886200
-105.57599228	-1.89886200
-105.49599228	-1.89886200
-105.41599228	-1.89886200
-105.33599228	-1.89886200
-105.25599228	-1.89886200
-105.17599228	-1.89886200
-105.09599228	-1.89886200
-105.01599228	-2.07770000
-104.93599228	-2.07770000
-104.85599228	-1.89886200
-104.77599228	-2.07770000
-104.69599228	-2.07770000
-104.61599229	-2.07770000
-104.53599229	-2.07770000
-104.45599229	-2.07770000
-104.37599229	-2.07770000
-104.29599229	-2.07770000
-104.21599229	-2.07770000
-104.13599229	-2.07770000
-104.05599229	-2.07770000
-103.97599229	-2.25714900
-103.89599229	-2.07770000
-103.81599229	-2.25714900
-103.73599229	-2.25714900
-103.65599229	-2.25714900
-103.57599229	-2.25714900
-103.49599229	-2.25714900
-103.41599229	-2.25714900
-103.33599229	-2.25714900
-103.25599229	-2.25714900
-103.17599229	-2.43598700
-103.09599229	-2.25714900
-103.01599229	-2.25714900
-102.93599230	-2.25714900
-102.85599230	-2.43598700
-102.77599230	-2.43598700
-102.69599230	-2.43598700
-102.61599230	-2.43598700
-102.53599230	-2.43598700
-102.45599230	-2.43598700
-102.37599230	-2.43598700
-102.29599230	-2.43598700
-102.21599230	-2.43598700
-102.13599230	-2.43598700
-102.05599230	-2.43598700
-101.97599230	-2.43598700
-101.89599230	-2.43598700
-101.81599230	-2.43598700
-101.73599230	-2.61543600
-101.65599230	-2.43598700
-101.57599230	-2.61543600
-101.49599230	-2.61543600
-101.41599230	-2.61543600
-101.33599230	-2.61543600
-101.25599231	-2.61543600
-101.17599231	-2.61543600
-101.09599231	-2.61543600
-101.01599231	-2.61543600
-100.93599231	-2.61543600
-100.85599231	-2.61543600
-100.77599231	-2.61543600
-100.69599231	-2.61543600
-100.61599231	-2.61543600
-100.53599231	-2.79427500
-100.45599231	-2.79427500
-100.37599231	-2.61543600
-100.29599231	-2.79427500
-100.21599231	-2.79427500
-100.13599231	-2.79427500
-100.05599231	-2.61543600
-99.97599231	-2.79427500
-99.89599231	-2.79427500
-99.81599231	-2.79427500
-99.73599231	-2.79427500
-99.65599232	-2.79427500
-99.57599232	-2.79427500
-99.49599232	-2.79427500
-99.41599232	-2.79427500
-99.33599232	-2.79427500
-99.25599232	-2.79427500
-99.17599232	-2.79427500
-99.09599232	-2.79427500
-99.01599232	-2.79427500
-98.93599232	-2.79427500
-98.85599232	-2.79427500
-98.77599232	-2.79427500
-98.69599232	-2.97372400
-98.61599232	-2.79427500
-98.53599232	-2.97372400
-98.45599232	-2.97372400
-98.37599232	-2.79427500
-98.29599232	-2.97372400
-98.21599232	-2.97372400
-98.13599232	-2.97372400
-98.05599232	-2.97372400
-97.97599233	-2.97372400
-97.89599233	-2.97372400
-97.81599233	-2.97372400
-97.73599233	-2.97372400
-97.65599233	-2.97372400
-97.57599233	-2.97372400
-97.49599233	-3.15256200
-97.41599233	-2.97372400
-97.33599233	-3.15256200
-97.25599233	-3.15256200
-97.17599233	-3.15256200
-97.09599233	-3.15256200
-97.01599233	-3.15256200
-96.93599233	-3.15256200
-96.85599233	-3.15256200
-96.77599233	-3.15256200
-96.69599233	-3.15256200
-96.61599233	-3.15256200
-96.53599233	-3.15256200
-96.45599233	-3.15256200
-96.37599234	-3.15256200
-96.29599234	-3.33201100
-96.21599234	-3.15256200
-96.13599234	-3.15256200
-96.05599234	-3.15256200
-95.97599234	-3.33201100
-95.89599234	-3.33201100
-95.81599234	-3.33201100
-95.73599234	-3.33201100
-95.65599234	-3.33201100
-95.57599234	-3.33201100
-95.49599234	-3.33201100
-95.41599234	-3.33201100
-95.33599234	-3.33201100
-95.25599234	-3.33201100
-95.17599234	-3.33201100
-95.09599234	-3.33201100
-95.01599234	-3.51084900
-94.93599234	-3.33201100
-94.85599234	-3.33201100
-94.77599234	-3.33201100
-94.69599235	-3.33201100
-94.61599235	-3.33201100
-94.53599235	-3.51084900
-94.45599235	-3.33201100
-94.37599235	-3.51084900
-94.29599235	-3.51084900
-94.21599235	-3.51084900
-94.13599235	-3.33201100
-94.05599235	-3.51084900
-93.97599235	-3.51084900
-93.89599235	-3.51084900
-93.81599235	-3.51084900
-93.73599235	-3.51084900
-93.65599235	-3.51084900
-93.57599235	-3.51084900
-93.49599235	-3.51084900
-93.41599235	-3.51084900
-93.33599235	-3.69029800
-93.25599235	-3.51084900
-93.17599235	-3.51084900
-93.09599236	-3.69029800
-93.01599236	-3.51084900
-92.93599236	-3.51084900
-92.85599236	-3.69029800
-92.77599236	-3.69029800
-92.69599236	-3.69029800
-92.61599236	-3.69029800
-92.53599236	-3.69029800
-92.45599236	-3.69029800
-92.37599236	-3.69029800
-92.29599236	-3.69029800
-92.21599236	-3.69029800
-92.13599236	-3.69029800
-92.05599236	-3.86913700
-91.97599236	-3.86913700
-91.89599236	-3.69029800
-91.81599236	-3.86913700
-91.73599236	-3.86913700
-91.65599236	-3.86913700
-91.57599236	-3.86913700
-91.49599236	-3.86913700
-91.41599237	-3.86913700
-91.33599237	-3.86913700
-91.25599237	-3.86913700
-91.17599237	-3.86913700
-91.09599237	-3.86913700
-91.01599237	-3.86913700
-90.93599237	-3.86913700
-90.85599237	-3.86913700
-90.77599237	-3.86913700
-90.69599237	-3.86913700
-90.61599237	-3.86913700
-90.53599237	-4.04858500
-90.45599237	-3.86913700
-90.37599237	-4.04858500
-90.29599237	-3.86913700
-90.21599237	-4.04858500
-90.13599237	-3.86913700
-90.05599237	-3.86913700
-89.97599237	-4.04858500
-89.89599237	-4.04858500
-89.81599238	-4.04858500
-89.73599238	-4.04858500
-89.65599238	-3.86913700
-89.57599238	-4.04858500
-89.49599238	-4.04858500
-89.41599238	-4.04858500
-89.33599238	-4.04858500
-89.25599238	-4.04858500
-89.17599238	-4.04858500
-89.09599238	-4.04858500
-89.01599238	-4.22742400
-88.93599238	-4.04858500
-88.85599238	-4.04858500
-88.77599238	-4.04858500
-88.69599238	-4.04858500
-88.61599238	-4.22742400
-88.53599238	-4.22742400
-88.45599238	-4.22742400
-88.37599238	-4.22742400
-88.29599238	-4.22742400
-88.21599238	-4.22742400
-88.13599239	-4.22742400
-88.05599239	-4.22742400
-87.97599239	-4.22742400
-87.89599239	-4.22742400
-87.81599239	-4.22742400
-87.73599239	-4.22742400
-87.65599239	-4.22742400
-87.57599239	-4.22742400
-87.49599239	-4.22742400
-87.41599239	-4.22742400
-87.33599239	-4.22742400
-87.25599239	-4.22742400
-87.17599239	-4.22742400
-87.09599239	-4.22742400
-87.01599239	-4.22742400
-86.93599239	-4.22742400
-86.85599239	-4.22742400
-86.77599239	-4.22742400
-86.69599239	-4.40687300
-86.61599239	-4.22742400
-86.53599239	-4.22742400
-86.45599240	-4.40687300
-86.37599240	-4.40687300
-86.29599240	-4.22742400
-86.21599240	-4.40687300
-86.13599240	-4.22742400
-86.05599240	-4.40687300
-85.97599240	-4.40687300
-85.89599240	-4.58571100
-85.81599240	-4.58571100
-85.73599240	-4.58571100
-85.65599240	-4.58571100
-85.57599240	-4.40687300
-85.49599240	-4.40687300
-85.41599240	-4.58571100
-85.33599240	-4.58571100
-85.25599240	-4.40687300
-85.17599240	-4.58571100
-85.09599240	-4.58571100
-85.01599240	-4.58571100
-84.93599240	-4.58571100
-84.85599241	-4.58571100
-84.77599241	-4.58571100
-84.69599241	-4.58571100
-84.61599241	-4.58571100
-84.53599241	-4.58571100
-84.45599241	-4.58571100
-84.37599241	-4.58571100
-84.29599241	-4.58571100
-84.21599241	-4.58571100
-84.13599241	-4.58571100
-84.05599241	-4.58571100
-83.97599241	-4.58571100
-83.89599241	-4.58571100
-83.81599241	-4.58571100
-83.73599241	-4.76516000
-83.65599241	-4.58571100
-83.57599241	-4.58571100
-83.49599241	-4.76516000
-83.41599241	-4.76516000
-83.33599241	-4.76516000
-83.25599241	-4.76516000
-83.17599242	-4.76516000
-83.09599242	-4.76516000
-83.01599242	-4.76516000
-82.93599242	-4.76516000
-82.85599242	-4.76516000
-82.77599242	-4.76516000
-82.69599242	-4.76516000
-82.61599242	-4.76516000
-82.53599242	-4.76516000
-82.45599242	-4.76516000
-82.37599242	-4.76516000
-82.29599242	-4.76516000
-82.21599242	-4.76516000
-82.13599242	-4.76516000
-82.05599242	-4.76516000
-81.97599242	-4.76516000
-81.89599242	-4.76516000
-81.81599242	-4.76516000
-81.73599242	-4.94399800
-81.65599242	-4.76516000
-81.57599243	-4.94399800
-81.49599243	-4.76516000
-81.41599243	-4.76516000
-81.33599243	-4.76516000
-81.25599243	-4.94399800
-81.17599243	-4.94399800
-81.09599243	-4.94399800
-81.01599243	-4.94399800
-80.93599243	-4.94399800
-80.85599243	-4.94399800
-80.77599243	-4.94399800
-80.69599243	-4.94399800
-80.61599243	-4.94399800
-80.53599243	-4.94399800
-80.45599243	-4.94399800
-80.37599243	-4.94399800
-80.29599243	-4.94399800
-80.21599243	-4.94399800
-80.13599243	-4.94399800
-80.05599243	-4.94399800
-79.97599243	-4.94399800
-79.89599244	-4.94399800
-79.81599244	-4.94399800
-79.73599244	-4.94399800
-79.65599244	-4.94399800
-79.57599244	-4.94399800
-79.49599244	-4.94399800
-79.41599244	-4.94399800
-79.33599244	-5.12344700
-79.25599244	-5.12344700
-79.17599244	-4.94399800
-79.09599244	-5.12344700
-79.01599244	-4.94399800
-78.93599244	-4.94399800
-78.85599244	-5.12344700
-78.77599244	-5.12344700
-78.69599244	-5.12344700
-78.61599244	-5.12344700
-78.53599244	-5.12344700
-78.45599244	-5.12344700
-78.37599244	-5.12344700
-78.29599245	-5.12344700
-78.21599245	-5.12344700
-78.13599245	-5.12344700
-78.05599245	-5.12344700
-77.97599245	-5.12344700
-77.89599245	-5.12344700
-77.81599245	-5.12344700
-77.73599245	-5.12344700
-77.65599245	-5.30228600
-77.57599245	-5.12344700
-77.49599245	-5.12344700
-77.41599245	-5.30228600
-77.33599245	-5.12344700
-77.25599245	-5.12344700
-77.17599245	-5.30228600
-77.09599245	-5.30228600
-77.01599245	-5.30228600
-76.93599245	-5.30228600
-76.85599245	-5.30228600
-76.77599245	-5.30228600
-76.69599245	-5.30228600
-76.61599246	-5.30228600
-76.53599246	-5.30228600
-76.45599246	-5.30228600
-76.37599246	-5.30228600
-76.29599246	-5.30228600
-76.21599246	-5.30228600
-76.13599246	-5.30228600
-76.05599246	-5.30228600
-75.97599246	-5.30228600
-75.89599246	-5.30228600
-75.81599246	-5.30228600
-75.73599246	-5.30228600
-75.65599246	-5.30228600
-75.57599246	-5.30228600
-75.49599246	-5.30228600
-75.41599246	-5.30228600
-75.33599246	-5.30228600
-75.25599246	-5.30228600
-75.17599246	-5.30228600
-75.09599246	-5.30228600
-75.01599246	-5.30228600
-74.93599247	-5.30228600
-74.85599247	-5.30228600
-74.77599247	-5.30228600
-74.69599247	-5.48112400
-74.61599247	-5.48112400
-74.53599247	-5.30228600
-74.45599247	-5.30228600
-74.37599247	-5.48112400
-74.29599247	-5.30228600
-74.21599247	-5.48112400
-74.13599247	-5.48112400
-74.05599247	-5.30228600
-73.97599247	-5.48112400
-73.89599247	-5.48112400
-73.81599247	-5.30228600
-73.73599247	-5.48112400
-73.65599247	-5.48112400
-73.57599247	-5.48112400
-73.49599247	-5.48112400
-73.41599247	-5.48112400
-73.33599248	-5.48112400
-73.25599248	-5.48112400
-73.17599248	-5.48112400
-73.09599248	-5.48112400
-73.01599248	-5.48112400
-72.93599248	-5.48112400
-72.85599248	-5.48112400
-72.77599248	-5.48112400
-72.69599248	-5.48112400
-72.61599248	-5.48112400
-72.53599248	-5.48112400
-72.45599248	-5.48112400
-72.37599248	-5.48112400
-72.29599248	-5.48112400
-72.21599248	-5.48112400
-72.13599248	-5.48112400
-72.05599248	-5.48112400
-71.97599248	-5.48112400
-71.89599248	-5.48112400
-71.81599248	-5.48112400
-71.73599248	-5.48112400
-71.65599249	-5.48112400
-71.57599249	-5.48112400
-71.49599249	-5.48112400
-71.41599249	-5.48112400
-71.33599249	-5.48112400
-71.25599249	-5.48112400
-71.17599249	-5.48112400
-71.09599249	-5.48112400
-71.01599249	-5.48112400
-70.93599249	-5.48112400
-70.85599249	-5.48112400
-70.77599249	-5.48112400
-70.69599249	-5.48112400
-70.61599249	-5.66057300
-70.53599249	-5.48112400
-70.45599249	-5.66057300
-70.37599249	-5.66057300
-70.29599249	-5.48112400
-70.21599249	-5.66057300
-70.13599249	-5.66057300
-70.05599250	-5.48112400
-69.97599250	-5.66057300
-69.89599250	-5.66057300
-69.81599250	-5.66057300
-69.73599250	-5.66057300
-69.65599250	-5.66057300
-69.57599250	-5.66057300
-69.49599250	-5.66057300
-69.41599250	-5.66057300
-69.33599250	-5.66057300
-69.25599250	-5.66057300
-69.17599250	-5.66057300
-69.09599250	-5.66057300
-69.01599250	-5.66057300
-68.93599250	-5.66057300
-68.85599250	-5.66057300
-68.77599250	-5.66057300
-68.69599250	-5.66057300
-68.61599250	-5.66057300
-68.53599250	-5.66057300
-68.45599250	-5.66057300
-68.37599251	-5.66057300
-68.29599251	-5.66057300
-68.21599251	-5.66057300
-68.13599251	-5.66057300
-68.05599251	-5.66057300
-67.97599251	-5.66057300
-67.89599251	-5.66057300
-67.81599251	-5.66057300
-67.73599251	-5.66057300
-67.65599251	-5.66057300
-67.57599251	-5.66057300
-67.49599251	-5.66057300
-67.41599251	-5.66057300
-67.33599251	-5.66057300
-67.25599251	-5.66057300
-67.17599251	-5.66057300
-67.09599251	-5.66057300
-67.01599251	-5.66057300
-66.93599251	-5.66057300
-66.85599251	-5.66057300
-66.77599252	-5.66057300
-66.69599252	-5.66057300
-66.61599252	-5.66057300
-66.53599252	-5.66057300
-66.45599252	-5.66057300
-66.37599252	-5.66057300
-66.29599252	-5.66057300
-66.21599252	-5.66057300
-66.13599252	-5.66057300
-66.05599252	-5.66057300
-65.97599252	-5.66057300
-65.89599252	-5.66057300
-65.81599252	-5.66057300
-65.73599252	-5.66057300
-65.65599252	-5.66057300
-65.57599252	-5.66057300
-65.49599252	-5.66057300
-65.41599252	-5.66057300
-65.33599252	-5.66057300
-65.25599252	-5.66057300
-65.17599252	-5.66057300
-65.09599253	-5.66057300
-65.01599253	-5.66057300
-64.93599253	-5.66057300
-64.85599253	-5.66057300
-64.77599253	-5.66057300
-64.69599253	-5.83941200
-64.61599253	-5.66057300
-64.53599253	-5.66057300
-64.45599253	-5.66057300
-64.37599253	-5.66057300
-64.29599253	-5.66057300
-64.21599253	-5.66057300
-64.13599253	-5.66057300
-64.05599253	-5.66057300
-63.97599253	-5.66057300
-63.89599253	-5.66057300
-63.81599253	-5.66057300
-63.73599253	-5.66057300
-63.65599253	-5.66057300
-63.57599253	-5.66057300
-63.49599253	-5.66057300
-63.41599254	-5.66057300
-63.33599254	-5.66057300
-63.25599254	-5.66057300
-63.17599254	-5.66057300
-63.09599254	-5.66057300
-63.01599254	-5.66057300
-62.93599254	-5.66057300
-62.85599254	-5.83941200
-62.77599254	-5.66057300
-62.69599254	-5.66057300
-62.61599254	-5.66057300
-62.53599254	-5.66057300
-62.45599254	-5.66057300
-62.37599254	-5.66057300
-62.29599254	-5.66057300
-62.21599254	-5.66057300
-62.13599254	-5.66057300
-62.05599254	-5.83941200
-61.97599254	-5.66057300
-61.89599254	-5.66057300
-61.81599255	-5.66057300
-61.73599255	-5.66057300
-61.65599255	-5.66057300
-61.57599255	-5.83941200
-61.49599255	-5.66057300
-61.41599255	-5.66057300
-61.33599255	-5.66057300
-61.25599255	-5.83941200
-61.17599255	-5.66057300
-61.09599255	-5.66057300
-61.01599255	-5.66057300
-60.93599255	-5.83941200
-60.85599255	-5.66057300
-60.77599255	-5.66057300
-60.69599255	-5.66057300
-60.61599255	-5.83941200
-60.53599255	-5.83941200
-60.45599255	-5.66057300
-60.37599255	-5.83941200
-60.29599255	-5.66057300
-60.21599255	-5.66057300
-60.13599256	-5.83941200
-60.05599256	-5.66057300
-59.97599256	-5.83941200
-59.89599256	-5.66057300
-59.81599256	-5.66057300
-59.73599256	-5.66057300
-59.65599256	-5.66057300
-59.57599256	-5.66057300
-59.49599256	-5.83941200
-59.41599256	-5.66057300
-59.33599256	-5.66057300
-59.25599256	-5.66057300
-59.17599256	-5.83941200
-59.09599256	-5.66057300
-59.01599256	-5.83941200
-58.93599256	-5.83941200
-58.85599256	-5.66057300
-58.77599256	-5.66057300
-58.69599256	-5.66057300
-58.61599256	-5.66057300
-58.53599257	-5.83941200
-58.45599257	-5.83941200
-58.37599257	-5.66057300
-58.29599257	-5.83941200
-58.21599257	-5.66057300
-58.13599257	-5.66057300
-58.05599257	-5.66057300
-57.97599257	-5.83941200
-57.89599257	-5.66057300
-57.81599257	-5.83941200
-57.73599257	-5.83941200
-57.65599257	-5.83941200
-57.57599257	-5.66057300
-57.49599257	-5.83941200
-57.41599257	-5.83941200
-57.33599257	-5.66057300
-57.25599257	-5.66057300
-57.17599257	-5.66057300
-57.09599257	-5.66057300
-57.01599257	-5.66057300
-56.93599257	-5.83941200
-56.85599258	-5.66057300
-56.77599258	-5.66057300
-56.69599258	-5.66057300
-56.61599258	-5.83941200
-56.53599258	-5.66057300
-56.45599258	-5.83941200
-56.37599258	-5.66057300
-56.29599258	-5.66057300
-56.21599258	-5.66057300
-56.13599258	-5.66057300
-56.05599258	-5.66057300
-55.97599258	-5.66057300
-55.89599258	-5.66057300
-55.81599258	-5.66057300
-55.73599258	-5.66057300
-55.65599258	-5.66057300
-55.57599258	-5.66057300
-55.49599258	-5.66057300
-55.41599258	-5.66057300
-55.33599258	-5.66057300
-55.25599259	-5.66057300
-55.17599259	-5.66057300
-55.09599259	-5.66057300
-55.01599259	-5.66057300
-54.93599259	-5.66057300
-54.85599259	-5.66057300
-54.77599259	-5.66057300
-54.69599259	-5.66057300
-54.61599259	-5.66057300
-54.53599259	-5.66057300
-54.45599259	-5.66057300
-54.37599259	-5.66057300
-54.29599259	-5.66057300
-54.21599259	-5.66057300
-54.13599259	-5.66057300
-54.05599259	-5.66057300
-53.97599259	-5.66057300
-53.89599259	-5.66057300
-53.81599259	-5.66057300
-53.73599259	-5.66057300
-53.65599259	-5.66057300
-53.57599260	-5.66057300
-53.49599260	-5.66057300
-53.41599260	-5.66057300
-53.33599260	-5.66057300
-53.25599260	-5.66057300
-53.17599260	-5.66057300
-53.09599260	-5.66057300
-53.01599260	-5.66057300
-52.93599260	-5.66057300
-52.85599260	-5.66057300
-52.77599260	-5.66057300
-52.69599260	-5.66057300
-52.61599260	-5.66057300
-52.53599260	-5.66057300
-52.45599260	-5.66057300
-52.37599260	-5.66057300
-52.29599260	-5.66057300
-52.21599260	-5.66057300
-52.13599260	-5.66057300
-52.05599260	-5.66057300
-51.97599260	-5.66057300
-51.89599261	-5.48112400
-51.81599261	-5.66057300
-51.73599261	-5.66057300
-51.65599261	-5.66057300
-51.57599261	-5.66057300
-51.49599261	-5.66057300
-51.41599261	-5.66057300
-51.33599261	-5.66057300
-51.25599261	-5.66057300
-51.17599261	-5.66057300
-51.09599261	-5.66057300
-51.01599261	-5.66057300
-50.93599261	-5.66057300
-50.85599261	-5.66057300
-50.77599261	-5.66057300
-50.69599261	-5.66057300
-50.61599261	-5.66057300
-50.53599261	-5.66057300
-50.45599261	-5.48112400
-50.37599261	-5.66057300
-50.29599262	-5.66057300
-50.21599262	-5.66057300
-50.13599262	-5.66057300
-50.05599262	-5.66057300
-49.97599262	-5.66057300
-49.89599262	-5.48112400
-49.81599262	-5.48112400
-49.73599262	-5.66057300
-49.65599262	-5.66057300
-49.57599262	-5.48112400
-49.49599262	-5.48112400
-49.41599262	-5.48112400
-49.33599262	-5.66057300
-49.25599262	-5.48112400
-49.17599262	-5.66057300
-49.09599262	-5.66057300
-49.01599262	-5.48112400
-48.93599262	-5.48112400
-48.85599262	-5.48112400
-48.77599262	-5.48112400
-48.69599262	-5.48112400
-48.61599263	-5.48112400
-48.53599263	-5.48112400
-48.45599263	-5.48112400
-48.37599263	-5.48112400
-48.29599263	-5.48112400
-48.21599263	-5.48112400
-48.13599263	-5.48112400
-48.05599263	-5.48112400
-47.97599263	-5.48112400
-47.89599263	-5.48112400
-47.81599263	-5.48112400
-47.73599263	-5.48112400
-47.65599263	-5.48112400
-47.57599263	-5.48112400
-47.49599263	-5.48112400
-47.41599263	-5.48112400
-47.33599263	-5.48112400
-47.25599263	-5.48112400
-47.17599263	-5.48112400
-47.09599263	-5.48112400
-47.01599264	-5.48112400
-46.93599264	-5.48112400
-46.85599264	-5.48112400
-46.77599264	-5.48112400
-46.69599264	-5.48112400
-46.61599264	-5.48112400
-46.53599264	-5.48112400
-46.45599264	-5.48112400
-46.37599264	-5.48112400
-46.29599264	-5.48112400
-46.21599264	-5.48112400
-46.13599264	-5.48112400
-46.05599264	-5.48112400
-45.97599264	-5.30228600
-45.89599264	-5.30228600
-45.81599264	-5.30228600
-45.73599264	-5.30228600
-45.65599264	-5.48112400
-45.57599264	-5.30228600
-45.49599264	-5.30228600
-45.41599264	-5.48112400
-45.33599265	-5.30228600
-45.25599265	-5.30228600
-45.17599265	-5.30228600
-45.09599265	-5.30228600
-45.01599265	-5.30228600
-44.93599265	-5.30228600
-44.85599265	-5.30228600
-44.77599265	-5.30228600
-44.69599265	-5.30228600
-44.61599265	-5.30228600
-44.53599265	-5.30228600
-44.45599265	-5.30228600
-44.37599265	-5.30228600
-44.29599265	-5.30228600
-44.21599265	-5.30228600
-44.13599265	-5.30228600
-44.05599265	-5.30228600
-43.97599265	-5.12344700
-43.89599265	-5.30228600
-43.81599265	-5.30228600
-43.73599266	-5.30228600
-43.65599266	-5.30228600
-43.57599266	-5.12344700
-43.49599266	-5.12344700
-43.41599266	-5.12344700
-43.33599266	-5.12344700
-43.25599266	-5.30228600
-43.17599266	-5.12344700
-43.09599266	-5.12344700
-43.01599266	-5.30228600
-42.93599266	-5.12344700
-42.85599266	-5.12344700
-42.77599266	-5.12344700
-42.69599266	-5.12344700
-42.61599266	-5.12344700
-42.53599266	-5.12344700
-42.45599266	-5.12344700
-42.37599266	-5.12344700
-42.29599266	-5.12344700
-42.21599266	-5.12344700
-42.13599266	-5.12344700
-42.05599267	-5.12344700
-41.97599267	-5.12344700
-41.89599267	-5.12344700
-41.81599267	-5.12344700
-41.73599267	-5.12344700
-41.65599267	-5.12344700
-41.57599267	-5.12344700
-41.49599267	-5.12344700
-41.41599267	-5.12344700
-41.33599267	-5.12344700
-41.25599267	-5.12344700
-41.17599267	-4.94399800
-41.09599267	-5.12344700
-41.01599267	-5.12344700
-40.93599267	-5.12344700
-40.85599267	-4.94399800
-40.77599267	-4.94399800
-40.69599267	-4.94399800
-40.61599267	-4.94399800
-40.53599267	-4.94399800
-40.45599267	-4.94399800
-40.37599268	-4.94399800
-40.29599268	-4.94399800
-40.21599268	-4.94399800
-40.13599268	-4.94399800
-40.05599268	-4.94399800
-39.97599268	-4.94399800
-39.89599268	-4.94399800
-39.81599268	-4.94399800
-39.73599268	-4.94399800
-39.65599268	-4.94399800
-39.57599268	-4.94399800
-39.49599268	-4.94399800
-39.41599268	-4.94399800
-39.33599268	-4.94399800
-39.25599268	-4.94399800
-39.17599268	-4.94399800
-39.09599268	-4.94399800
-39.01599268	-4.94399800
-38.93599268	-4.76516000
-38.85599268	-4.76516000
-38.77599269	-4.76516000
-38.69599269	-4.94399800
-38.61599269	-4.76516000
-38.53599269	-4.76516000
-38.45599269	-4.76516000
-38.37599269	-4.76516000
-38.29599269	-4.76516000
-38.21599269	-4.76516000
-38.13599269	-4.76516000
-38.05599269	-4.76516000
-37.97599269	-4.76516000
-37.89599269	-4.76516000
-37.81599269	-4.76516000
-37.73599269	-4.76516000
-37.65599269	-4.76516000
-37.57599269	-4.76516000
-37.49599269	-4.76516000
-37.41599269	-4.76516000
-37.33599269	-4.76516000
-37.25599269	-4.76516000
-37.17599269	-4.76516000
-37.09599270	-4.76516000
-37.01599270	-4.76516000
-36.93599270	-4.76516000
-36.85599270	-4.76516000
-36.77599270	-4.76516000
-36.69599270	-4.58571100
-36.61599270	-4.76516000
-36.53599270	-4.76516000
-36.45599270	-4.58571100
-36.37599270	-4.76516000
-36.29599270	-4.76516000
-36.21599270	-4.58571100
-36.13599270	-4.58571100
-36.05599270	-4.58571100
-35.97599270	-4.58571100
-35.89599270	-4.58571100
-35.81599270	-4.58571100
-35.73599270	-4.58571100
-35.65599270	-4.58571100
-35.57599270	-4.58571100
-35.49599271	-4.58571100
-35.41599271	-4.58571100
-35.33599271	-4.58571100
-35.25599271	-4.58571100
-35.17599271	-4.58571100
-35.09599271	-4.58571100
-35.01599271	-4.58571100
-34.93599271	-4.58571100
-34.85599271	-4.40687300
-34.77599271	-4.58571100
-34.69599271	-4.58571100
-34.61599271	-4.58571100
-34.53599271	-4.40687300
-34.45599271	-4.40687300
-34.37599271	-4.40687300
-34.29599271	-4.40687300
-34.21599271	-4.40687300
-34.13599271	-4.58571100
-34.05599271	-4.58571100
-33.97599271	-4.22742400
-33.89599271	-4.40687300
-33.81599272	-4.40687300
-33.73599272	-4.22742400
-33.65599272	-4.40687300
-33.57599272	-4.40687300
-33.49599272	-4.22742400
-33.41599272	-4.22742400
-33.33599272	-4.22742400
-33.25599272	-4.22742400
-33.17599272	-4.22742400
-33.09599272	-4.22742400
-33.01599272	-4.22742400
-32.93599272	-4.22742400
-32.85599272	-4.22742400
-32.77599272	-4.22742400
-32.69599272	-4.22742400
-32.61599272	-4.22742400
-32.53599272	-4.22742400
-32.45599272	-4.22742400
-32.37599272	-4.22742400
-32.29599272	-4.22742400
-32.21599273	-4.22742400
-32.13599273	-4.22742400
-32.05599273	-4.22742400
-31.97599273	-4.22742400
-31.89599273	-4.22742400
-31.81599273	-4.22742400
-31.73599273	-4.22742400
-31.65599273	-4.22742400
-31.57599273	-4.22742400
-31.49599273	-4.22742400
-31.41599273	-4.22742400
-31.33599273	-4.22742400
-31.25599273	-4.22742400
-31.17599273	-4.22742400
-31.09599273	-4.04858500
-31.01599273	-4.04858500
-30.93599273	-4.04858500
-30.85599273	-4.22742400
-30.77599273	-4.04858500
-30.69599273	-4.22742400
-30.61599273	-4.04858500
-30.53599274	-4.04858500
-30.45599274	-4.04858500
-30.37599274	-4.04858500
-30.29599274	-4.04858500
-30.21599274	-4.04858500
-30.13599274	-4.04858500
-30.05599274	-4.04858500
-29.97599274	-4.04858500
-29.89599274	-4.04858500
-29.81599274	-4.04858500
-29.73599274	-4.04858500
-29.65599274	-4.04858500
-29.57599274	-4.04858500
-29.49599274	-4.04858500
-29.41599274	-4.04858500
-29.33599274	-4.04858500
-29.25599274	-4.04858500
-29.17599274	-4.04858500
-29.09599274	-4.04858500
-29.01599274	-3.86913700
-28.93599275	-3.86913700
-28.85599275	-3.86913700
-28.77599275	-3.86913700
-28.69599275	-3.86913700
-28.61599275	-3.86913700
-28.53599275	-3.86913700
-28.45599275	-3.86913700
-28.37599275	-3.86913700
-28.29599275	-3.86913700
-28.21599275	-3.86913700
-28.13599275	-3.86913700
-28.05599275	-3.86913700
-27.97599275	-3.69029800
-27.89599275	-3.69029800
-27.81599275	-3.86913700
-27.73599275	-3.86913700
-27.65599275	-3.86913700
-27.57599275	-3.69029800
-27.49599275	-3.86913700
-27.41599275	-3.69029800
-27.33599275	-3.86913700
-27.25599276	-3.69029800
-27.17599276	-3.69029800
-27.09599276	-3.69029800
-27.01599276	-3.69029800
-26.93599276	-3.69029800
-26.85599276	-3.69029800
-26.77599276	-3.69029800
-26.69599276	-3.69029800
-26.61599276	-3.69029800
-26.53599276	-3.69029800
-26.45599276	-3.51084900
-26.37599276	-3.69029800
-26.29599276	-3.51084900
-26.21599276	-3.51084900
-26.13599276	-3.51084900
-26.05599276	-3.51084900
-25.97599276	-3.51084900
-25.89599276	-3.51084900
-25.81599276	-3.51084900
-25.73599276	-3.51084900
-25.65599276	-3.51084900
-25.57599277	-3.51084900
-25.49599277	-3.51084900
-25.41599277	-3.51084900
-25.33599277	-3.51084900
-25.25599277	-3.51084900
-25.17599277	-3.51084900
-25.09599277	-3.33201100
-25.01599277	-3.51084900
-24.93599277	-3.33201100
-24.85599277	-3.51084900
-24.77599277	-3.33201100
-24.69599277	-3.51084900
-24.61599277	-3.51084900
-24.53599277	-3.33201100
-24.45599277	-3.51084900
-24.37599277	-3.51084900
-24.29599277	-3.33201100
-24.21599277	-3.33201100
-24.13599277	-3.33201100
-24.05599277	-3.33201100
-23.97599278	-3.33201100
-23.89599278	-3.33201100
-23.81599278	-3.33201100
-23.73599278	-3.33201100
-23.65599278	-3.33201100
-23.57599278	-3.33201100
-23.49599278	-3.33201100
-23.41599278	-3.15256200
-23.33599278	-3.15256200
-23.25599278	-3.33201100
-23.17599278	-3.33201100
-23.09599278	-3.33201100
-23.01599278	-3.33201100
-22.93599278	-3.33201100
-22.85599278	-3.15256200
-22.77599278	-3.15256200
-22.69599278	-3.15256200
-22.61599278	-3.15256200
-22.53599278	-3.15256200
-22.45599278	-3.15256200
-22.37599278	-3.15256200
-22.29599279	-3.15256200
-22.21599279	-3.15256200
-22.13599279	-3.15256200
-22.05599279	-3.15256200
-21.97599279	-3.15256200
-21.89599279	-3.15256200
-21.81599279	-3.15256200
-21.73599279	-3.15256200
-21.65599279	-3.15256200
-21.57599279	-3.15256200
-21.49599279	-3.15256200
-21.41599279	-2.97372400
-21.33599279	-2.97372400
-21.25599279	-2.97372400
-21.17599279	-2.97372400
-21.09599279	-2.97372400
-21.01599279	-2.97372400
-20.93599279	-2.79427500
-20.85599279	-2.97372400
-20.77599279	-2.97372400
-20.69599280	-2.97372400
-20.61599280	-2.97372400
-20.53599280	-2.97372400
-20.45599280	-2.97372400
-20.37599280	-2.97372400
-20.29599280	-2.79427500
-20.21599280	-2.79427500
-20.13599280	-2.79427500
-20.05599280	-2.79427500
-19.97599280	-2.79427500
-19.89599280	-2.79427500
-19.81599280	-2.79427500
-19.73599280	-2.79427500
-19.65599280	-2.79427500
-19.57599280	-2.79427500
-19.49599280	-2.79427500
-19.41599280	-2.79427500
-19.33599280	-2.79427500
-19.25599280	-2.79427500
-19.17599280	-2.79427500
-19.09599280	-2.79427500
-19.01599281	-2.79427500
-18.93599281	-2.79427500
-18.85599281	-2.79427500
-18.77599281	-2.79427500
-18.69599281	-2.79427500
-18.61599281	-2.79427500
-18.53599281	-2.61543600
-18.45599281	-2.61543600
-18.37599281	-2.61543600
-18.29599281	-2.79427500
-18.21599281	-2.61543600
-18.13599281	-2.61543600
-18.05599281	-2.61543600
-17.97599281	-2.61543600
-17.89599281	-2.61543600
-17.81599281	-2.61543600
-17.73599281	-2.61543600
-17.65599281	-2.61543600
-17.57599281	-2.61543600
-17.49599281	-2.61543600
-17.41599282	-2.61543600
-17.33599282	-2.61543600
-17.25599282	-2.61543600
-17.17599282	-2.61543600
-17.09599282	-2.43598700
-17.01599282	-2.61543600
-16.93599282	-2.61543600
-16.85599282	-2.43598700
-16.77599282	-2.43598700
-16.69599282	-2.61543600
-16.61599282	-2.43598700
-16.53599282	-2.43598700
-16.45599282	-2.43598700
-16.37599282	-2.43598700
-16.29599282	-2.43598700
-16.21599282	-2.43598700
-16.13599282	-2.43598700
-16.05599282	-2.43598700
-15.97599282	-2.43598700
-15.89599282	-2.43598700
-15.81599282	-2.43598700
-15.73599283	-2.25714900
-15.65599283	-2.25714900
-15.57599283	-2.25714900
-15.49599283	-2.25714900
-15.41599283	-2.25714900
-15.33599283	-2.25714900
-15.25599283	-2.25714900
-15.17599283	-2.25714900
-15.09599283	-2.25714900
-15.01599283	-2.25714900
-14.93599283	-2.25714900
-14.85599283	-2.25714900
-14.77599283	-2.25714900
-14.69599283	-2.25714900
-14.61599283	-2.25714900
-14.53599283	-2.25714900
-14.45599283	-2.25714900
-14.37599283	-2.07770000
-14.29599283	-2.07770000
-14.21599283	-2.25714900
-14.13599283	-2.07770000
-14.05599284	-2.07770000
-13.97599284	-2.07770000
-13.89599284	-2.07770000
-13.81599284	-2.07770000
-13.73599284	-2.07770000
-13.65599284	-2.07770000
-13.57599284	-2.07770000
-13.49599284	-2.07770000
-13.41599284	-2.07770000
-13.33599284	-2.07770000
-13.25599284	-1.89886200
-13.17599284	-2.07770000
-13.09599284	-2.07770000
-13.01599284	-1.89886200
-12.93599284	-1.89886200
-12.85599284	-1.89886200
-12.77599284	-1.89886200
-12.69599284	-1.89886200
-12.61599284	-1.89886200
-12.53599284	-1.89886200
-12.45599285	-1.89886200
-12.37599285	-1.89886200
-12.29599285	-1.89886200
-12.21599285	-1.89886200
-12.13599285	-1.89886200
-12.05599285	-1.89886200
-11.97599285	-1.89886200
-11.89599285	-1.71941300
-11.81599285	-1.71941300
-11.73599285	-1.89886200
-11.65599285	-1.71941300
-11.57599285	-1.89886200
-11.49599285	-1.71941300
-11.41599285	-1.71941300
-11.33599285	-1.71941300
-11.25599285	-1.71941300
-11.17599285	-1.71941300
-11.09599285	-1.71941300
-11.01599285	-1.71941300
-10.93599285	-1.71941300
-10.85599285	-1.71941300
-10.77599286	-1.71941300
-10.69599286	-1.71941300
-10.61599286	-1.71941300
-10.53599286	-1.71941300
-10.45599286	-1.54057400
-10.37599286	-1.54057400
-10.29599286	-1.54057400
-10.21599286	-1.71941300
-10.13599286	-1.54057400
-10.05599286	-1.54057400
-9.97599286	-1.54057400
-9.89599286	-1.54057400
-9.81599286	-1.54057400
-9.73599286	-1.54057400
-9.65599286	-1.54057400
-9.57599286	-1.54057400
-9.49599286	-1.36112500
-9.41599286	-1.54057400
-9.33599286	-1.36112500
-9.25599286	-1.36112500
-9.17599287	-1.36112500
-9.09599287	-1.36112500
-9.01599287	-1.36112500
-8.93599287	-1.36112500
-8.85599287	-1.36112500
-8.77599287	-1.36112500
-8.69599287	-1.36112500
-8.61599287	-1.36112500
-8.53599287	-1.36112500
-8.45599287	-1.36112500
-8.37599287	-1.36112500
-8.29599287	-1.36112500
-8.21599287	-1.36112500
-8.13599287	-1.36112500
-8.05599287	-1.36112500
-7.97599287	-1.36112500
-7.89599287	-1.18228700
-7.81599287	-1.36112500
-7.73599287	-1.36112500
-7.65599287	-1.36112500
-7.57599287	-1.18228700
-7.49599288	-1.18228700
-7.41599288	-1.18228700
-7.33599288	-1.18228700
-7.25599288	-1.18228700
-7.17599288	-1.18228700
-7.09599288	-1.18228700
-7.01599288	-1.18228700
-6.93599288	-1.18228700
-6.85599288	-1.18228700
-6.77599288	-1.18228700
-6.69599288	-1.00283800
-6.61599288	-1.18228700
-6.53599288	-1.18228700
-6.45599288	-1.00283800
-6.37599288	-1.18228700
-6.29599288	-1.00283800
-6.21599288	-1.00283800
-6.13599288	-1.00283800
-6.05599288	-1.00283800
-5.97599288	-1.00283800
-5.89599289	-1.00283800
-5.81599289	-1.00283800
-5.73599289	-1.00283800
-5.65599289	-1.00283800
-5.57599289	-1.00283800
-5.49599289	-1.00283800
-5.41599289	-1.00283800
-5.33599289	-1.00283800
-5.25599289	-1.00283800
-5.17599289	-0.82399980
-5.09599289	-0.82399980
-5.01599289	-0.82399980
-4.93599289	-0.82399980
-4.85599289	-1.00283800
-4.77599289	-0.82399980
-4.69599289	-0.82399980
-4.61599289	-0.82399980
-4.53599289	-0.82399980
-4.45599289	-0.82399980
-4.37599289	-0.82399980
-4.29599289	-0.82399980
-4.21599290	-0.82399980
-4.13599290	-0.82399980
-4.05599290	-0.64455090
-3.97599290	-0.64455090
-3.89599290	-0.64455090
-3.81599290	-0.64455090
-3.73599290	-0.64455090
-3.65599290	-0.64455090
-3.57599290	-0.64455090
-3.49599290	-0.64455090
-3.41599290	-0.64455090
-3.33599290	-0.64455090
-3.25599290	-0.64455090
-3.17599290	-0.64455090
-3.09599290	-0.64455090
-3.01599290	-0.64455090
-2.93599290	-0.64455090
-2.85599290	-0.64455090
-2.77599290	-0.64455090
-2.69599290	-0.64455090
-2.61599290	-0.64455090
-2.53599291	-0.46571250
-2.45599291	-0.64455090
-2.37599291	-0.46571250
-2.29599291	-0.64455090
-2.21599291	-0.46571250
-2.13599291	-0.46571250
-2.05599291	-0.46571250
-1.97599291	-0.46571250
-1.89599291	-0.46571250
-1.81599291	-0.46571250
-1.73599291	-0.46571250
-1.65599291	-0.46571250
-1.57599291	-0.46571250
-1.49599291	-0.46571250
-1.41599291	-0.28626360
-1.33599291	-0.46571250
-1.25599291	-0.46571250
-1.17599291	-0.46571250
-1.09599291	-0.28626360
-1.01599291	-0.46571250
-0.93599292	-0.46571250
-0.85599292	-0.46571250
-0.77599292	-0.46571250
-0.69599292	-0.28626360
-0.61599292	-0.28626360
-0.53599292	-0.28626360
-0.45599292	-0.28626360
-0.37599292	-0.28626360
-0.29599292	-0.28626360
-0.21599292	-0.28626360
-0.13599292	-0.28626360
-0.05599292	-0.28626360
0.02400708	-0.10742520
0.10400708	-0.28626360
0.18400708	-0.28626360
0.26400708	-0.28626360
0.34400708	-0.10742520
0.42400708	-0.28626360
0.50400708	-0.10742520
0.58400708	-0.10742520
0.66400708	-0.10742520
0.74400707	-0.10742520
0.82400707	-0.10742520
0.90400707	-0.10742520
0.98400707	0.07202368
1.06400707	-0.10742520
1.14400707	-0.10742520
1.22400707	-0.10742520
1.30400707	-0.10742520
1.38400707	-0.10742520
1.46400707	0.07202368
1.54400707	-0.10742520
1.62400707	0.07202368
1.70400707	-0.10742520
1.78400707	0.07202368
1.86400707	0.07202368
1.94400707	0.07202368
2.02400707	0.07202368
2.10400707	0.07202368
2.18400707	0.07202368
2.26400707	0.07202368
2.34400706	0.07202368
2.42400706	0.07202368
2.50400706	0.07202368
2.58400706	0.07202368
2.66400706	0.07202368
2.74400706	0.07202368
2.82400706	0.25086220
2.90400706	0.07202368
2.98400706	0.07202368
3.06400706	0.07202368
3.14400706	0.07202368
3.22400706	0.07202368
3.30400706	0.25086220
3.38400706	0.25086220
3.46400706	0.25086220
3.54400706	0.25086220
3.62400706	0.25086220
3.70400706	0.25086220
3.78400706	0.25086220
3.86400706	0.25086220
3.94400706	0.25086220
4.02400705	0.25086220
4.10400705	0.25086220
4.18400705	0.25086220
4.26400705	0.25086220
4.34400705	0.25086220
4.42400705	0.25086220
4.50400705	0.25086220
4.58400705	0.42970060
4.66400705	0.25086220
4.74400705	0.42970060
4.82400705	0.42970060
4.90400705	0.42970060
4.98400705	0.42970060
5.06400705	0.42970060
5.14400705	0.42970060
5.22400705	0.42970060
5.30400705	0.42970060
5.38400705	0.60853910
5.46400705	0.42970060
5.54400705	0.42970060
5.62400704	0.42970060
5.70400704	0.42970060
5.78400704	0.60853910
5.86400704	0.60853910
5.94400704	0.60853910
6.02400704	0.60853910
6.10400704	0.60853910
6.18400704	0.60853910
6.26400704	0.60853910
6.34400704	0.60853910
6.42400704	0.60853910
6.50400704	0.60853910
6.58400704	0.60853910
6.66400704	0.60853910
6.74400704	0.60853910
6.82400704	0.60853910
6.90400704	0.78737750
6.98400704	0.78737750
7.06400704	0.78737750
7.14400704	0.78737750
7.22400704	0.78737750
7.30400703	0.78737750
7.38400703	0.78737750
7.46400703	0.78737750
7.54400703	0.78737750
7.62400703	0.78737750
7.70400703	0.78737750
7.78400703	0.78737750
7.86400703	0.96682640
7.94400703	0.96682640
8.02400703	0.78737750
8.10400703	0.96682640
8.18400703	0.96682640
8.26400703	0.96682640
8.34400703	0.96682640
8.42400703	0.96682640
8.50400703	0.96682640
8.58400703	0.96682640
8.66400703	0.96682640
8.74400703	0.96682640
8.82400703	1.14566500
8.90400703	0.96682640
8.98400702	1.14566500
9.06400702	0.96682640
9.14400702	1.14566500
9.22400702	0.96682640
9.30400702	1.14566500
9.38400702	1.14566500
9.46400702	1.14566500
9.54400702	0.96682640
9.62400702	1.14566500
9.70400702	1.14566500
9.78400702	1.14566500
9.86400702	1.14566500
9.94400702	1.32511400
10.02400702	1.14566500
10.10400702	1.14566500
10.18400702	1.32511400
10.26400702	1.32511400
10.34400702	1.32511400
10.42400702	1.32511400
10.50400702	1.14566500
10.58400701	1.32511400
10.66400701	1.32511400
10.74400701	1.32511400
10.82400701	1.32511400
10.90400701	1.32511400
10.98400701	1.32511400
11.06400701	1.32511400
11.14400701	1.32511400
11.22400701	1.32511400
11.30400701	1.50395200
11.38400701	1.50395200
11.46400701	1.50395200
11.54400701	1.50395200
11.62400701	1.50395200
11.70400701	1.50395200
11.78400701	1.50395200
11.86400701	1.50395200
11.94400701	1.50395200
12.02400701	1.50395200
12.10400701	1.50395200
12.18400701	1.50395200
12.26400700	1.50395200
12.34400700	1.50395200
12.42400700	1.50395200
12.50400700	1.50395200
12.58400700	1.50395200
12.66400700	1.50395200
12.74400700	1.50395200
12.82400700	1.68340100
12.90400700	1.68340100
12.98400700	1.50395200
13.06400700	1.50395200
13.14400700	1.68340100
13.22400700	1.68340100
13.30400700	1.68340100
13.38400700	1.68340100
13.46400700	1.68340100
13.54400700	1.68340100
13.62400700	1.68340100
13.70400700	1.68340100
13.78400700	1.68340100
13.86400699	1.68340100
13.94400699	1.68340100
14.02400699	1.68340100
14.10400699	1.68340100
14.18400699	1.68340100
14.26400699	1.86223900
14.34400699	1.86223900
14.42400699	1.68340100
14.50400699	1.86223900
14.58400699	1.86223900
14.66400699	1.86223900
14.74400699	1.86223900
14.82400699	1.86223900
14.90400699	1.86223900
14.98400699	1.86223900
15.06400699	1.86223900
15.14400699	1.86223900
15.22400699	2.04168800
15.30400699	1.86223900
15.38400699	1.86223900
15.46400699	2.04168800
15.54400698	2.04168800
15.62400698	2.04168800
15.70400698	2.04168800
15.78400698	2.04168800
15.86400698	2.04168800
15.94400698	2.04168800
16.02400698	2.04168800
16.10400698	2.04168800
16.18400698	2.04168800
16.26400698	2.04168800
16.34400698	2.04168800
16.42400698	2.04168800
16.50400698	2.22052700
16.58400698	2.04168800
16.66400698	2.04168800
16.74400698	2.22052700
16.82400698	2.22052700
16.90400698	2.22052700
16.98400698	2.22052700
17.06400698	2.22052700
17.14400697	2.22052700
17.22400697	2.22052700
17.30400697	2.22052700
17.38400697	2.22052700
17.46400697	2.22052700
17.54400697	2.22052700
17.62400697	2.22052700
17.70400697	2.22052700
17.78400697	2.22052700
17.86400697	2.39997600
17.94400697	2.22052700
18.02400697	2.39997600
18.10400697	2.22052700
18.18400697	2.22052700
18.26400697	2.39997600
18.34400697	2.39997600
18.42400697	2.39997600
18.50400697	2.39997600
18.58400697	2.39997600
18.66400697	2.39997600
18.74400697	2.39997600
18.82400696	2.39997600
18.90400696	2.39997600
18.98400696	2.39997600
19.06400696	2.39997600
19.14400696	2.39997600
19.22400696	2.39997600
19.30400696	2.39997600
19.38400696	2.57881400
19.46400696	2.57881400
19.54400696	2.57881400
19.62400696	2.57881400
19.70400696	2.57881400
19.78400696	2.57881400
19.86400696	2.57881400
19.94400696	2.57881400
20.02400696	2.57881400
20.10400696	2.57881400
20.18400696	2.57881400
20.26400696	2.57881400
20.34400696	2.57881400
20.42400696	2.57881400
20.50400695	2.57881400
20.58400695	2.57881400
20.66400695	2.75826300
20.74400695	2.75826300
20.82400695	2.57881400
20.90400695	2.75826300
20.98400695	2.75826300
21.06400695	2.75826300
21.14400695	2.75826300
21.22400695	2.75826300
21.30400695	2.75826300
21.38400695	2.75826300
21.46400695	2.75826300
21.54400695	2.75826300
21.62400695	2.75826300
21.70400695	2.75826300
21.78400695	2.75826300
21.86400695	2.75826300
21.94400695	2.75826300
22.02400695	2.93710100
22.10400694	2.93710100
22.18400694	2.93710100
22.26400694	2.75826300
22.34400694	2.93710100
22.42400694	2.93710100
22.50400694	2.93710100
22.58400694	2.93710100
22.66400694	2.93710100
22.74400694	2.93710100
22.82400694	2.93710100
22.90400694	2.93710100
22.98400694	2.93710100
23.06400694	2.93710100
23.14400694	2.93710100
23.22400694	2.93710100
23.30400694	2.93710100
23.38400694	2.93710100
23.46400694	2.93710100
23.54400694	2.93710100
23.62400694	3.11655000
23.70400694	3.11655000
23.78400693	2.93710100
23.86400693	2.93710100
23.94400693	3.11655000
24.02400693	3.11655000
24.10400693	3.11655000
24.18400693	3.11655000
24.26400693	3.11655000
24.34400693	3.11655000
24.42400693	3.11655000
24.50400693	3.11655000
24.58400693	3.11655000
24.66400693	3.11655000
24.74400693	3.11655000
24.82400693	3.11655000
24.90400693	3.11655000
24.98400693	3.11655000
25.06400693	3.11655000
25.14400693	3.11655000
25.22400693	3.11655000
25.30400693	3.29538900
25.38400692	3.29538900
25.46400692	3.29538900
25.54400692	3.29538900
25.62400692	3.29538900
25.70400692	3.29538900
25.78400692	3.29538900
25.86400692	3.29538900
25.94400692	3.29538900
26.02400692	3.29538900
26.10400692	3.29538900
26.18400692	3.29538900
26.26400692	3.29538900
26.34400692	3.29538900
26.42400692	3.29538900
26.50400692	3.47483800
26.58400692	3.47483800
26.66400692	3.47483800
26.74400692	3.47483800
26.82400692	3.47483800
26.90400692	3.47483800
26.98400692	3.47483800
27.06400691	3.47483800
27.14400691	3.47483800
27.22400691	3.47483800
27.30400691	3.47483800
27.38400691	3.47483800
27.46400691	3.47483800
27.54400691	3.47483800
27.62400691	3.47483800
27.70400691	3.47483800
27.78400691	3.47483800
27.86400691	3.65367600
27.94400691	3.65367600
28.02400691	3.47483800
28.10400691	3.65367600
28.18400691	3.47483800
28.26400691	3.65367600
28.34400691	3.65367600
28.42400691	3.65367600
28.50400691	3.65367600
28.58400691	3.65367600
28.66400690	3.65367600
28.74400690	3.65367600
28.82400690	3.65367600
28.90400690	3.65367600
28.98400690	3.65367600
29.06400690	3.65367600
29.14400690	3.65367600
29.22400690	3.65367600
29.30400690	3.83312500
29.38400690	3.65367600
29.46400690	3.65367600
29.54400690	3.83312500
29.62400690	3.83312500
29.70400690	3.83312500
29.78400690	3.83312500
29.86400690	3.83312500
29.94400690	3.83312500
30.02400690	3.83312500
30.10400690	3.83312500
30.18400690	3.83312500
30.26400690	3.83312500
30.34400689	3.83312500
30.42400689	3.83312500
30.50400689	3.83312500
30.58400689	3.83312500
30.66400689	3.83312500
30.74400689	3.83312500
30.82400689	3.83312500
30.90400689	3.83312500
30.98400689	3.83312500
31.06400689	3.83312500
31.14400689	3.83312500
31.22400689	4.01196300
31.30400689	3.83312500
31.38400689	4.01196300
31.46400689	4.01196300
31.54400689	4.01196300
31.62400689	4.01196300
31.70400689	4.01196300
31.78400689	4.01196300
31.86400689	4.01196300
31.94400688	4.01196300
32.02400688	4.01196300
32.10400688	4.01196300
32.18400688	4.01196300
32.26400688	4.01196300
32.34400688	4.01196300
32.42400688	4.01196300
32.50400688	4.01196300
32.58400688	4.01196300
32.66400688	4.01196300
32.74400688	4.19141200
32.82400688	4.01196300
32.90400688	4.01196300
32.98400688	4.19141200
33.06400688	4.01196300
33.14400688	4.19141200
33.22400688	4.19141200
33.30400688	4.19141200
33.38400688	4.19141200
33.46400688	4.19141200
33.54400688	4.19141200
33.62400687	4.19141200
33.70400687	4.19141200
33.78400687	4.19141200
33.86400687	4.19141200
33.94400687	4.37025100
34.02400687	4.19141200
34.10400687	4.19141200
34.18400687	4.37025100
34.26400687	4.19141200
34.34400687	4.37025100
34.42400687	4.37025100
34.50400687	4.37025100
34.58400687	4.37025100
34.66400687	4.19141200
34.74400687	4.37025100
34.82400687	4.37025100
34.90400687	4.37025100
34.98400687	4.37025100
35.06400687	4.37025100
35.14400687	4.37025100
35.22400687	4.37025100
35.30400686	4.37025100
35.38400686	4.37025100
35.46400686	4.37025100
35.54400686	4.37025100
35.62400686	4.37025100
35.70400686	4.37025100
35.78400686	4.37025100
35.86400686	4.37025100
35.94400686	4.37025100
36.02400686	4.37025100
36.10400686	4.37025100
36.18400686	4.37025100
36.26400686	4.37025100
36.34400686	4.54969900
36.42400686	4.54969900
36.50400686	4.54969900
36.58400686	4.54969900
36.66400686	4.37025100
36.74400686	4.54969900
36.82400686	4.54969900
36.90400685	4.54969900
36.98400685	4.37025100
37.06400685	4.37025100
37.14400685	4.54969900
37.22400685	4.54969900
37.30400685	4.54969900
37.38400685	4.54969900
37.46400685	4.54969900
37.54400685	4.54969900
37.62400685	4.54969900
37.70400685	4.54969900
37.78400685	4.54969900
37.86400685	4.54969900
37.94400685	4.72853800
38.02400685	4.54969900
38.10400685	4.72853800
38.18400685	4.72853800
38.26400685	4.72853800
38.34400685	4.72853800
38.42400685	4.72853800
38.50400685	4.72853800
38.58400684	4.72853800
38.66400684	4.72853800
38.74400684	4.72853800
38.82400684	4.72853800
38.90400684	4.72853800
38.98400684	4.72853800
39.06400684	4.72853800
39.14400684	4.72853800
39.22400684	4.72853800
39.30400684	4.72853800
39.38400684	4.72853800
39.46400684	4.72853800
39.54400684	4.72853800
39.62400684	4.72853800
39.70400684	4.72853800
39.78400684	4.72853800
39.86400684	4.72853800
39.94400684	4.72853800
40.02400684	4.72853800
40.10400684	4.72853800
40.18400683	4.72853800
40.26400683	4.72853800
40.34400683	4.72853800
40.42400683	4.72853800
40.50400683	4.90798700
40.58400683	4.90798700
40.66400683	4.72853800
40.74400683	4.90798700
40.82400683	4.90798700
40.90400683	4.90798700
40.98400683	4.90798700
41.06400683	4.90798700
41.14400683	4.90798700
41.22400683	4.90798700
41.30400683	4.90798700
41.38400683	4.90798700
41.46400683	4.90798700
41.54400683	4.90798700
41.62400683	4.90798700
41.70400683	4.90798700
41.78400683	4.90798700
41.86400682	4.90798700
41.94400682	4.90798700
42.02400682	4.90798700
42.10400682	5.08682500
42.18400682	5.08682500
42.26400682	4.90798700
42.34400682	4.90798700
42.42400682	4.90798700
42.50400682	4.90798700
42.58400682	5.08682500
42.66400682	4.90798700
42.74400682	5.08682500
42.82400682	4.90798700
42.90400682	4.90798700
42.98400682	5.08682500
43.06400682	5.08682500
43.14400682	4.90798700
43.22400682	5.08682500
43.30400682	5.08682500
43.38400682	5.08682500
43.46400681	5.08682500
43.54400681	4.90798700
43.62400681	5.08682500
43.70400681	5.08682500
43.78400681	5.08682500
43.86400681	5.08682500
43.94400681	5.08682500
44.02400681	5.08682500
44.10400681	5.08682500
44.18400681	5.08682500
44.26400681	5.08682500
44.34400681	5.08682500
44.42400681	5.08682500
44.50400681	5.08682500
44.58400681	5.08682500
44.66400681	5.08682500
44.74400681	5.08682500
44.82400681	5.26627400
44.90400681	5.08682500
44.98400681	5.08682500
45.06400681	5.08682500
45.14400680	5.08682500
45.22400680	5.08682500
45.30400680	5.08682500
45.38400680	5.08682500
45.46400680	5.08682500
45.54400680	5.26627400
45.62400680	5.26627400
45.70400680	5.26627400
45.78400680	5.26627400
45.86400680	5.08682500
45.94400680	5.26627400
46.02400680	5.26627400
46.10400680	5.26627400
46.18400680	5.26627400
46.26400680	5.26627400
46.34400680	5.26627400
46.42400680	5.26627400
46.50400680	5.26627400
46.58400680	5.26627400
46.66400680	5.26627400
46.74400680	5.26627400
46.82400679	5.26627400
46.90400679	5.26627400
46.98400679	5.26627400
47.06400679	5.26627400
47.14400679	5.26627400
47.22400679	5.26627400
47.30400679	5.26627400
47.38400679	5.26627400
47.46400679	5.26627400
47.54400679	5.26627400
47.62400679	5.26627400
47.70400679	5.26627400
47.78400679	5.26627400
47.86400679	5.26627400
47.94400679	5.26627400
48.02400679	5.26627400
48.10400679	5.26627400
48.18400679	5.26627400
48.26400679	5.44511200
48.34400679	5.26627400
48.42400678	5.44511200
48.50400678	5.44511200
48.58400678	5.26627400
48.66400678	5.44511200
48.74400678	5.26627400
48.82400678	5.26627400
48.90400678	5.26627400
48.98400678	5.44511200
49.06400678	5.44511200
49.14400678	5.44511200
49.22400678	5.44511200
49.30400678	5.44511200
49.38400678	5.44511200
49.46400678	5.44511200
49.54400678	5.44511200
49.62400678	5.44511200
49.70400678	5.44511200
49.78400678	5.44511200
49.86400678	5.44511200
49.94400678	5.44511200
50.02400678	5.44511200
50.10400677	5.44511200
50.18400677	5.44511200
50.26400677	5.44511200
50.34400677	5.44511200
50.42400677	5.26627400
50.50400677	5.44511200
50.58400677	5.44511200
50.66400677	5.44511200
50.74400677	5.44511200
50.82400677	5.44511200
50.90400677	5.44511200
50.98400677	5.44511200
51.06400677	5.44511200
51.14400677	5.44511200
51.22400677	5.44511200
51.30400677	5.44511200
51.38400677	5.44511200
51.46400677	5.44511200
51.54400677	5.44511200
51.62400677	5.44511200
51.70400676	5.44511200
51.78400676	5.44511200
51.86400676	5.44511200
51.94400676	5.44511200
52.02400676	5.44511200
52.10400676	5.44511200
52.18400676	5.62456100
52.26400676	5.44511200
52.34400676	5.44511200
52.42400676	5.44511200
52.50400676	5.44511200
52.58400676	5.44511200
52.66400676	5.44511200
52.74400676	5.44511200
52.82400676	5.44511200
52.90400676	5.44511200
52.98400676	5.44511200
53.06400676	5.44511200
53.14400676	5.44511200
53.22400676	5.44511200
53.30400676	5.44511200
53.38400675	5.44511200
53.46400675	5.62456100
53.54400675	5.44511200
53.62400675	5.62456100
53.70400675	5.44511200
53.78400675	5.62456100
53.86400675	5.44511200
53.94400675	5.62456100
54.02400675	5.62456100
54.10400675	5.62456100
54.18400675	5.62456100
54.26400675	5.44511200
54.34400675	5.62456100
54.42400675	5.44511200
54.50400675	5.62456100
54.58400675	5.44511200
54.66400675	5.62456100
54.74400675	5.62456100
54.82400675	5.62456100
54.90400675	5.62456100
54.98400674	5.44511200
55.06400674	5.62456100
55.14400674	5.62456100
55.22400674	5.62456100
55.30400674	5.62456100
55.38400674	5.62456100
55.46400674	5.62456100
55.54400674	5.62456100
55.62400674	5.44511200
55.70400674	5.62456100
55.78400674	5.62456100
55.86400674	5.62456100
55.94400674	5.44511200
56.02400674	5.62456100
56.10400674	5.62456100
56.18400674	5.62456100
56.26400674	5.62456100
56.34400674	5.44511200
56.42400674	5.62456100
56.50400674	5.62456100
56.58400674	5.62456100
56.66400673	5.62456100
56.74400673	5.62456100
56.82400673	5.62456100
56.90400673	5.62456100
56.98400673	5.62456100
57.06400673	5.62456100
57.14400673	5.62456100
57.22400673	5.62456100
57.30400673	5.62456100
57.38400673	5.62456100
57.46400673	5.62456100
57.54400673	5.62456100
57.62400673	5.62456100
57.70400673	5.62456100
57.78400673	5.80340000
57.86400673	5.62456100
57.94400673	5.62456100
58.02400673	5.62456100
58.10400673	5.62456100
58.18400673	5.62456100
58.26400673	5.62456100
58.34400672	5.62456100
58.42400672	5.62456100
58.50400672	5.62456100
58.58400672	5.62456100
58.66400672	5.62456100
58.74400672	5.62456100
58.82400672	5.62456100
58.90400672	5.80340000
58.98400672	5.62456100
59.06400672	5.62456100
59.14400672	5.80340000
59.22400672	5.62456100
59.30400672	5.62456100
59.38400672	5.62456100
59.46400672	5.62456100
59.54400672	5.62456100
59.62400672	5.62456100
59.70400672	5.62456100
59.78400672	5.62456100
59.86400672	5.62456100
59.94400671	5.62456100
60.02400671	5.62456100
60.10400671	5.62456100
60.18400671	5.80340000
60.26400671	5.62456100
60.34400671	5.62456100
60.42400671	5.62456100
60.50400671	5.62456100
60.58400671	5.80340000
60.66400671	5.62456100
60.74400671	5.62456100
60.82400671	5.62456100
60.90400671	5.62456100
60.98400671	5.80340000
61.06400671	5.80340000
61.14400671	5.62456100
61.22400671	5.62456100
61.30400671	5.62456100
61.38400671	5.62456100
61.46400671	5.62456100
61.54400671	5.62456100
61.62400670	5.62456100
61.70400670	5.62456100
61.78400670	5.80340000
61.86400670	5.62456100
61.94400670	5.62456100
62.02400670	5.62456100
62.10400670	5.62456100
62.18400670	5.62456100
62.26400670	5.62456100
62.34400670	5.62456100
62.42400670	5.62456100
62.50400670	5.62456100
62.58400670	5.62456100
62.66400670	5.62456100
62.74400670	5.62456100
62.82400670	5.62456100
62.90400670	5.62456100
62.98400670	5.62456100
63.06400670	5.62456100
63.14400670	5.80340000
63.22400669	5.62456100
63.30400669	5.62456100
63.38400669	5.62456100
63.46400669	5.80340000
63.54400669	5.62456100
63.62400669	5.62456100
63.70400669	5.62456100
63.78400669	5.62456100
63.86400669	5.62456100
63.94400669	5.62456100
64.02400669	5.62456100
64.10400669	5.62456100
64.18400669	5.62456100
64.26400669	5.44511200
64.34400669	5.62456100
64.42400669	5.62456100
64.50400669	5.62456100
64.58400669	5.62456100
64.66400669	5.62456100
64.74400669	5.44511200
64.82400669	5.62456100
64.90400668	5.62456100
64.98400668	5.62456100
65.06400668	5.62456100
65.14400668	5.62456100
65.22400668	5.62456100
65.30400668	5.62456100
65.38400668	5.62456100
65.46400668	5.62456100
65.54400668	5.44511200
65.62400668	5.44511200
65.70400668	5.62456100
65.78400668	5.62456100
65.86400668	5.44511200
65.94400668	5.62456100
66.02400668	5.62456100
66.10400668	5.62456100
66.18400668	5.44511200
66.26400668	5.62456100
66.34400668	5.62456100
66.42400668	5.62456100
66.50400667	5.62456100
66.58400667	5.62456100
66.66400667	5.44511200
66.74400667	5.62456100
66.82400667	5.62456100
66.90400667	5.44511200
66.98400667	5.62456100
67.06400667	5.44511200
67.14400667	5.44511200
67.22400667	5.44511200
67.30400667	5.44511200
67.38400667	5.62456100
67.46400667	5.62456100
67.54400667	5.44511200
67.62400667	5.44511200
67.70400667	5.44511200
67.78400667	5.62456100
67.86400667	5.44511200
67.94400667	5.62456100
68.02400667	5.62456100
68.10400667	5.44511200
68.18400666	5.44511200
68.26400666	5.44511200
68.34400666	5.44511200
68.42400666	5.44511200
68.50400666	5.44511200
68.58400666	5.44511200
68.66400666	5.44511200
68.74400666	5.44511200
68.82400666	5.44511200
68.90400666	5.44511200
68.98400666	5.44511200
69.06400666	5.44511200
69.14400666	5.44511200
69.22400666	5.44511200
69.30400666	5.44511200
69.38400666	5.44511200
69.46400666	5.44511200
69.54400666	5.44511200
69.62400666	5.44511200
69.70400666	5.44511200
69.78400666	5.44511200
69.86400665	5.44511200
69.94400665	5.44511200
70.02400665	5.44511200
70.10400665	5.44511200
70.18400665	5.44511200
70.26400665	5.44511200
70.34400665	5.44511200
70.42400665	5.44511200
70.50400665	5.44511200
70.58400665	5.44511200
70.66400665	5.44511200
70.74400665	5.44511200
70.82400665	5.44511200
70.90400665	5.44511200
70.98400665	5.26627400
71.06400665	5.44511200
71.14400665	5.44511200
71.22400665	5.26627400
71.30400665	5.44511200
71.38400665	5.44511200
71.46400664	5.44511200
71.54400664	5.44511200
71.62400664	5.44511200
71.70400664	5.44511200
71.78400664	5.26627400
71.86400664	5.44511200
71.94400664	5.26627400
72.02400664	5.44511200
72.10400664	5.26627400
72.18400664	5.26627400
72.26400664	5.26627400
72.34400664	5.44511200
72.42400664	5.26627400
72.50400664	5.44511200
72.58400664	5.26627400
72.66400664	5.26627400
72.74400664	5.44511200
72.82400664	5.26627400
72.90400664	5.26627400
72.98400664	5.44511200
73.06400664	5.26627400
73.14400663	5.26627400
73.22400663	5.26627400
73.30400663	5.26627400
73.38400663	5.26627400
73.46400663	5.26627400
73.54400663	5.26627400
73.62400663	5.26627400
73.70400663	5.26627400
73.78400663	5.26627400
73.86400663	5.26627400
73.94400663	5.26627400
74.02400663	5.26627400
74.10400663	5.26627400
74.18400663	5.26627400
74.26400663	5.26627400
74.34400663	5.26627400
74.42400663	5.26627400
74.50400663	5.26627400
74.58400663	5.26627400
74.66400663	5.26627400
74.74400662	5.26627400
74.82400662	5.26627400
74.90400662	5.26627400
74.98400662	5.26627400
75.06400662	5.26627400
75.14400662	5.26627400
75.22400662	5.26627400
75.30400662	5.08682500
75.38400662	5.26627400
75.46400662	5.26627400
75.54400662	5.26627400
75.62400662	5.26627400
75.70400662	5.26627400
75.78400662	5.26627400
75.86400662	5.26627400
75.94400662	5.08682500
76.02400662	5.08682500
76.10400662	5.08682500
76.18400662	5.26627400
76.26400662	5.08682500
76.34400662	5.08682500
76.42400661	5.08682500
76.50400661	5.08682500
76.58400661	5.26627400
76.66400661	5.08682500
76.74400661	5.26627400
76.82400661	5.08682500
76.90400661	5.08682500
76.98400661	5.08682500
77.06400661	5.08682500
77.14400661	5.08682500
77.22400661	5.08682500
77.30400661	5.08682500
77.38400661	5.08682500
77.46400661	5.08682500
77.54400661	5.08682500
77.62400661	5.08682500
77.70400661	5.08682500
77.78400661	5.08682500
77.86400661	5.08682500
77.94400661	5.08682500
78.02400660	5.08682500
78.10400660	5.08682500
78.18400660	5.08682500
78.26400660	5.08682500
78.34400660	5.08682500
78.42400660	5.08682500
78.50400660	5.08682500
78.58400660	5.08682500
78.66400660	4.90798700
78.74400660	5.08682500
78.82400660	5.08682500
78.90400660	4.90798700
78.98400660	4.90798700
79.06400660	4.90798700
79.14400660	5.08682500
79.22400660	4.90798700
79.30400660	4.90798700
79.38400660	4.90798700
79.46400660	4.90798700
79.54400660	4.90798700
79.62400660	4.90798700
79.70400659	4.90798700
79.78400659	4.90798700
79.86400659	4.90798700
79.94400659	4.90798700
80.02400659	4.90798700
80.10400659	4.90798700
80.18400659	4.90798700
80.26400659	4.90798700
80.34400659	4.90798700
80.42400659	4.90798700
80.50400659	4.90798700
80.58400659	4.90798700
80.66400659	4.72853800
80.74400659	4.72853800
80.82400659	4.90798700
80.90400659	4.90798700
80.98400659	4.90798700
81.06400659	4.90798700
81.14400659	4.72853800
81.22400659	4.72853800
81.30400659	4.72853800
81.38400658	4.72853800
81.46400658	4.72853800
81.54400658	4.72853800
81.62400658	4.72853800
81.70400658	4.72853800
81.78400658	4.72853800
81.86400658	4.72853800
81.94400658	4.72853800
82.02400658	4.72853800
82.10400658	4.72853800
82.18400658	4.72853800
82.26400658	4.72853800
82.34400658	4.72853800
82.42400658	4.72853800
82.50400658	4.72853800
82.58400658	4.72853800
82.66400658	4.72853800
82.74400658	4.72853800
82.82400658	4.54969900
82.90400658	4.72853800
82.98400657	4.54969900
83.06400657	4.54969900
83.14400657	4.54969900
83.22400657	4.72853800
83.30400657	4.54969900
83.38400657	4.54969900
83.46400657	4.54969900
83.54400657	4.54969900
83.62400657	4.54969900
83.70400657	4.54969900
83.78400657	4.54969900
83.86400657	4.54969900
83.94400657	4.54969900
84.02400657	4.54969900
84.10400657	4.54969900
84.18400657	4.54969900
84.26400657	4.54969900
84.34400657	4.54969900
84.42400657	4.54969900
84.50400657	4.54969900
84.58400657	4.54969900
84.66400656	4.54969900
84.74400656	4.54969900
84.82400656	4.54969900
84.90400656	4.37025100
84.98400656	4.54969900
85.06400656	4.54969900
85.14400656	4.54969900
85.22400656	4.37025100
85.30400656	4.37025100
85.38400656	4.37025100
85.46400656	4.37025100
85.54400656	4.37025100
85.62400656	4.37025100
85.70400656	4.37025100
85.78400656	4.37025100
85.86400656	4.37025100
85.94400656	4.37025100
86.02400656	4.37025100
86.10400656	4.37025100
86.18400656	4.37025100
86.26400655	4.37025100
86.34400655	4.37025100
86.42400655	4.37025100
86.50400655	4.37025100
86.58400655	4.37025100
86.66400655	4.37025100
86.74400655	4.37025100
86.82400655	4.37025100
86.90400655	4.37025100
86.98400655	4.37025100
87.06400655	4.19141200
87.14400655	4.37025100
87.22400655	4.19141200
87.30400655	4.37025100
87.38400655	4.19141200
87.46400655	4.19141200
87.54400655	4.19141200
87.62400655	4.19141200
87.70400655	4.19141200
87.78400655	4.19141200
87.86400655	4.37025100
87.94400654	4.19141200
88.02400654	4.19141200
88.10400654	4.19141200
88.18400654	4.19141200
88.26400654	4.19141200
88.34400654	4.19141200
88.42400654	4.19141200
88.50400654	4.19141200
88.58400654	4.19141200
88.66400654	4.19141200
88.74400654	4.19141200
88.82400654	4.19141200
88.90400654	4.01196300
88.98400654	4.01196300
89.06400654	4.01196300
89.14400654	4.01196300
89.22400654	4.01196300
89.30400654	4.01196300
89.38400654	4.01196300
89.46400654	4.01196300
89.54400653	4.01196300
89.62400653	4.01196300
89.70400653	4.01196300
89.78400653	4.01196300
89.86400653	4.01196300
89.94400653	4.01196300
90.02400653	4.01196300
90.10400653	4.01196300
90.18400653	4.01196300
90.26400653	3.83312500
90.34400653	3.83312500
90.42400653	4.01196300
90.50400653	3.83312500
90.58400653	3.83312500
90.66400653	4.01196300
90.74400653	3.83312500
90.82400653	3.83312500
90.90400653	3.83312500
90.98400653	3.83312500
91.06400653	3.83312500
91.14400653	3.83312500
91.22400652	3.83312500
91.30400652	3.83312500
91.38400652	3.83312500
91.46400652	3.83312500
91.54400652	3.83312500
91.62400652	3.83312500
91.70400652	3.83312500
91.78400652	3.83312500
91.86400652	3.83312500
91.94400652	3.83312500
92.02400652	3.83312500
92.10400652	3.83312500
92.18400652	3.83312500
92.26400652	3.83312500
92.34400652	3.83312500
92.42400652	3.65367600
92.50400652	3.83312500
92.58400652	3.83312500
92.66400652	3.65367600
92.74400652	3.65367600
92.82400652	3.65367600
92.90400651	3.65367600
92.98400651	3.65367600
93.06400651	3.65367600
93.14400651	3.65367600
93.22400651	3.65367600
93.30400651	3.65367600
93.38400651	3.65367600
93.46400651	3.65367600
93.54400651	3.65367600
93.62400651	3.65367600
93.70400651	3.65367600
93.78400651	3.65367600
93.86400651	3.65367600
93.94400651	3.65367600
94.02400651	3.65367600
94.10400651	3.47483800
94.18400651	3.65367600
94.26400651	3.47483800
94.34400651	3.47483800
94.42400651	3.65367600
94.50400650	3.47483800
94.58400650	3.47483800
94.66400650	3.47483800
94.74400650	3.47483800
94.82400650	3.47483800
94.90400650	3.47483800
94.98400650	3.47483800
95.06400650	3.47483800
95.14400650	3.47483800
95.22400650	3.47483800
95.30400650	3.47483800
95.38400650	3.47483800
95.46400650	3.29538900
95.54400650	3.47483800
95.62400650	3.29538900
95.70400650	3.29538900
95.78400650	3.29538900
95.86400650	3.29538900
95.94400650	3.29538900
96.02400650	3.29538900
96.10400650	3.29538900
96.18400649	3.29538900
96.26400649	3.29538900
96.34400649	3.29538900
96.42400649	3.29538900
96.50400649	3.29538900
96.58400649	3.29538900
96.66400649	3.29538900
96.74400649	3.29538900
96.82400649	3.29538900
96.90400649	3.29538900
96.98400649	3.11655000
97.06400649	3.29538900
97.14400649	3.11655000
97.22400649	3.11655000
97.30400649	3.11655000
97.38400649	3.11655000
97.46400649	3.11655000
97.54400649	3.11655000
97.62400649	3.11655000
97.70400649	3.11655000
97.78400648	3.11655000
97.86400648	3.11655000
97.94400648	3.11655000
98.02400648	3.11655000
98.10400648	3.11655000
98.18400648	3.11655000
98.26400648	3.11655000
98.34400648	2.93710100
98.42400648	2.93710100
98.50400648	2.93710100
98.58400648	2.93710100
98.66400648	2.93710100
98.74400648	2.93710100
98.82400648	2.93710100
98.90400648	2.93710100
98.98400648	2.93710100
99.06400648	2.93710100
99.14400648	2.93710100
99.22400648	2.93710100
99.30400648	2.93710100
99.38400648	2.93710100
99.46400647	2.93710100
99.54400647	2.93710100
99.62400647	2.93710100
99.70400647	2.93710100
99.78400647	2.93710100
99.86400647	2.93710100
99.94400647	2.93710100
100.02400647	2.93710100
100.10400647	2.75826300
100.18400647	2.93710100
100.26400647	2.93710100
100.34400647	2.93710100
100.42400647	2.93710100
100.50400647	2.93710100
100.58400647	2.75826300
100.66400647	2.75826300
100.74400647	2.75826300
100.82400647	2.75826300
100.90400647	2.75826300
100.98400647	2.75826300
101.06400646	2.75826300
101.14400646	2.75826300
101.22400646	2.75826300
101.30400646	2.75826300
101.38400646	2.75826300
101.46400646	2.75826300
101.54400646	2.75826300
101.62400646	2.75826300
101.70400646	2.57881400
101.78400646	2.57881400
101.86400646	2.57881400
101.94400646	2.57881400
102.02400646	2.57881400
102.10400646	2.57881400
102.18400646	2.57881400
102.26400646	2.57881400
102.34400646	2.57881400
102.42400646	2.57881400
102.50400646	2.57881400
102.58400646	2.57881400
102.66400646	2.57881400
102.74400645	2.39997600
102.82400645	2.57881400
102.90400645	2.39997600
102.98400645	2.39997600
103.06400645	2.39997600
103.14400645	2.39997600
103.22400645	2.39997600
103.30400645	2.39997600
103.38400645	2.39997600
103.46400645	2.39997600
103.54400645	2.39997600
103.62400645	2.39997600
103.70400645	2.39997600
103.78400645	2.39997600
103.86400645	2.39997600
103.94400645	2.39997600
104.02400645	2.39997600
104.10400645	2.39997600
104.18400645	2.39997600
104.26400645	2.39997600
104.34400644	2.39997600
104.42400644	2.39997600
104.50400644	2.22052700
104.58400644	2.22052700
104.66400644	2.39997600
104.74400644	2.22052700
104.82400644	2.22052700
104.90400644	2.22052700
104.98400644	2.22052700
105.06400644	2.22052700
105.14400644	2.22052700
105.22400644	2.22052700
105.30400644	2.22052700
105.38400644	2.22052700
105.46400644	2.22052700
105.54400644	2.22052700
105.62400644	2.22052700
105.70400644	2.22052700
105.78400644	2.22052700
105.86400644	2.04168800
105.94400644	2.22052700
106.02400643	2.22052700
106.10400643	2.04168800
106.18400643	2.04168800
106.26400643	2.04168800
106.34400643	2.04168800
106.42400643	2.04168800
106.50400643	2.04168800
106.58400643	2.04168800
106.66400643	2.04168800
106.74400643	2.04168800
106.82400643	2.04168800
106.90400643	2.04168800
106.98400643	2.04168800
107.06400643	2.04168800
107.14400643	1.86223900
107.22400643	1.86223900
107.30400643	1.86223900
107.38400643	1.86223900
107.46400643	1.86223900
107.54400643	1.86223900
107.62400643	1.86223900
107.70400642	1.86223900
107.78400642	1.86223900
107.86400642	1.86223900
107.94400642	1.86223900
108.02400642	1.86223900
108.10400642	1.86223900
108.18400642	1.86223900
108.26400642	1.86223900
108.34400642	1.86223900
108.42400642	1.86223900
108.50400642	1.68340100
108.58400642	1.86223900
108.66400642	1.68340100
108.74400642	1.86223900
108.82400642	1.86223900
108.90400642	1.86223900
108.98400642	1.68340100
109.06400642	1.68340100
109.14400642	1.68340100
109.22400642	1.68340100
109.30400641	1.68340100
109.38400641	1.68340100
109.46400641	1.68340100
109.54400641	1.68340100
109.62400641	1.68340100
109.70400641	1.68340100
109.78400641	1.68340100
109.86400641	1.68340100
109.94400641	1.50395200
110.02400641	1.50395200
110.10400641	1.68340100
110.18400641	1.50395200
110.26400641	1.50395200
110.34400641	1.50395200
110.42400641	1.50395200
110.50400641	1.50395200
110.58400641	1.50395200
110.66400641	1.50395200
110.74400641	1.50395200
110.82400641	1.50395200
110.90400641	1.50395200
110.98400640	1.50395200
111.06400640	1.50395200
111.14400640	1.50395200
111.22400640	1.50395200
111.30400640	1.50395200
111.38400640	1.50395200
111.46400640	1.50395200
111.54400640	1.50395200
111.62400640	1.50395200
111.70400640	1.32511400
111.78400640	1.50395200
111.86400640	1.50395200
111.94400640	1.32511400
112.02400640	1.32511400
112.10400640	1.32511400
112.18400640	1.32511400
112.26400640	1.32511400
112.34400640	1.32511400
112.42400640	1.32511400
112.50400640	1.32511400
112.58400639	1.32511400
112.66400639	1.32511400
112.74400639	1.14566500
112.82400639	1.14566500
112.90400639	1.14566500
112.98400639	1.32511400
113.06400639	1.14566500
113.14400639	1.14566500
113.22400639	1.14566500
113.30400639	1.14566500
113.38400639	1.14566500
113.46400639	1.14566500
113.54400639	1.14566500
113.62400639	1.14566500
113.70400639	1.14566500
113.78400639	0.96682640
113.86400639	1.14566500
113.94400639	0.96682640
114.02400639	0.96682640
114.10400639	1.14566500
114.18400639	0.96682640
114.26400638	0.96682640
114.34400638	0.96682640
114.42400638	0.96682640
114.50400638	0.96682640
114.58400638	0.96682640
114.66400638	0.96682640
114.74400638	0.78737750
114.82400638	0.96682640
114.90400638	0.96682640
114.98400638	1.14566500
115.06400638	0.96682640
115.14400638	0.96682640
115.22400638	0.78737750
115.30400638	0.78737750
115.38400638	0.78737750
115.46400638	0.96682640
115.54400638	0.78737750
115.62400638	0.78737750
115.70400638	0.78737750
115.78400638	0.78737750
115.86400637	0.78737750
115.94400637	0.78737750
116.02400637	0.78737750
116.10400637	0.78737750
116.18400637	0.78737750
116.26400637	0.78737750
116.34400637	0.78737750
116.42400637	0.78737750
116.50400637	0.60853910
116.58400637	0.78737750
116.66400637	0.78737750
116.74400637	0.78737750
116.82400637	0.60853910
116.90400637	0.78737750
116.98400637	0.60853910
117.06400637	0.60853910
117.14400637	0.60853910
117.22400637	0.60853910
117.30400637	0.60853910
117.38400637	0.60853910
117.46400637	0.42970060
117.54400636	0.60853910
117.62400636	0.60853910
117.70400636	0.42970060
117.78400636	0.42970060
117.86400636	0.42970060
117.94400636	0.42970060
118.02400636	0.42970060
118.10400636	0.42970060
118.18400636	0.42970060
118.26400636	0.42970060
118.34400636	0.42970060
118.42400636	0.42970060
118.50400636	0.42970060
118.58400636	0.42970060
118.66400636	0.42970060
118.74400636	0.25086220
118.82400636	0.42970060
118.90400636	0.25086220
118.98400636	0.42970060
119.06400636	0.25086220
119.14400636	0.25086220
119.22400635	0.25086220
119.30400635	0.25086220
119.38400635	0.25086220
119.46400635	0.25086220
119.54400635	0.25086220
119.62400635	0.25086220
119.70400635	0.25086220
119.78400635	0.25086220
119.86400635	0.25086220
119.94400635	0.25086220
120.02400635	0.25086220
120.10400635	0.25086220
120.18400635	0.25086220
120.26400635	0.07202368
120.34400635	0.07202368
120.42400635	0.07202368
120.50400635	0.07202368
120.58400635	0.07202368
120.66400635	0.25086220
120.74400635	0.07202368
120.82400634	0.07202368
120.90400634	0.07202368
120.98400634	0.07202368
121.06400634	0.07202368
121.14400634	0.07202368
121.22400634	0.07202368
121.30400634	0.07202368
121.38400634	0.07202368
121.46400634	0.07202368
121.54400634	0.07202368
121.62400634	0.07202368
121.70400634	0.07202368
121.78400634	-0.10742520
121.86400634	0.07202368
121.94400634	0.07202368
122.02400634	0.07202368
122.10400634	0.07202368
122.18400634	0.07202368
122.26400634	-0.10742520
122.34400634	-0.10742520
122.42400634	-0.10742520
122.50400633	-0.10742520
122.58400633	-0.10742520
122.66400633	-0.10742520
122.74400633	-0.10742520
122.82400633	-0.10742520
122.90400633	-0.10742520
122.98400633	-0.10742520
123.06400633	-0.28626360
123.14400633	-0.28626360
123.22400633	-0.28626360
123.30400633	-0.28626360
123.38400633	-0.28626360
123.46400633	-0.28626360
123.54400633	-0.28626360
123.62400633	-0.28626360
123.70400633	-0.28626360
123.78400633	-0.28626360
123.86400633	-0.28626360
123.94400633	-0.28626360
124.02400633	-0.28626360
124.10400632	-0.46571250
124.18400632	-0.28626360
124.26400632	-0.28626360
124.34400632	-0.46571250
124.42400632	-0.46571250
124.50400632	-0.46571250
124.58400632	-0.46571250
124.66400632	-0.46571250
124.74400632	-0.46571250
124.82400632	-0.46571250
124.90400632	-0.46571250
124.98400632	-0.46571250
125.06400632	-0.46571250
125.14400632	-0.46571250
125.22400632	-0.64455090
125.30400632	-0.46571250
125.38400632	-0.46571250
125.46400632	-0.46571250
125.54400632	-0.46571250
125.62400632	-0.64455090
125.70400632	-0.46571250
125.78400631	-0.64455090
125.86400631	-0.64455090
125.94400631	-0.64455090
126.02400631	-0.64455090
126.10400631	-0.64455090
126.18400631	-0.64455090
126.26400631	-0.64455090
126.34400631	-0.64455090
126.42400631	-0.64455090
126.50400631	-0.64455090
126.58400631	-0.64455090
126.66400631	-0.64455090
126.74400631	-0.64455090
126.82400631	-0.64455090
126.90400631	-0.64455090
126.98400631	-0.64455090
127.06400631	-0.64455090
127.14400631	-0.64455090
127.22400631	-0.82399980
127.30400631	-0.82399980
127.38400630	-0.64455090
127.46400630	-0.82399980
127.54400630	-0.82399980
127.62400630	-0.82399980
127.70400630	-0.82399980
127.78400630	-0.82399980
127.86400630	-0.82399980
127.94400630	-0.82399980
128.02400630	-0.82399980
128.10400630	-0.82399980
128.18400630	-0.82399980
128.26400630	-1.00283800
128.34400630	-1.00283800
128.42400630	-1.00283800
128.50400630	-1.00283800
128.58400630	-1.00283800
128.66400630	-1.00283800
128.74400630	-1.00283800
128.82400630	-1.00283800
128.90400630	-1.00283800
128.98400630	-1.00283800
129.06400629	-1.00283800
129.14400629	-1.00283800
129.22400629	-1.00283800
129.30400629	-1.00283800
129.38400629	-1.00283800
129.46400629	-1.00283800
129.54400629	-1.18228700
129.62400629	-1.18228700
129.70400629	-1.18228700
129.78400629	-1.18228700
129.86400629	-1.18228700
129.94400629	-1.18228700
130.02400629	-1.18228700
130.10400629	-1.18228700
130.18400629	-1.18228700
130.26400629	-1.18228700
130.34400629	-1.18228700
130.42400629	-1.18228700
130.50400629	-1.36112500
130.58400629	-1.18228700
130.66400629	-1.18228700
130.74400628	-1.36112500
130.82400628	-1.36112500
130.90400628	-1.36112500
130.98400628	-1.36112500
131.06400628	-1.36112500
131.14400628	-1.36112500
131.22400628	-1.36112500
131.30400628	-1.36112500
131.38400628	-1.36112500
131.46400628	-1.36112500
131.54400628	-1.36112500
131.62400628	-1.36112500
131.70400628	-1.36112500
131.78400628	-1.36112500
131.86400628	-1.36112500
131.94400628	-1.36112500
132.02400628	-1.36112500
132.10400628	-1.54057400
132.18400628	-1.54057400
132.26400628	-1.54057400
132.34400627	-1.54057400
132.42400627	-1.54057400
132.50400627	-1.54057400
132.58400627	-1.54057400
132.66400627	-1.54057400
132.74400627	-1.54057400
132.82400627	-1.54057400
132.90400627	-1.54057400
132.98400627	-1.54057400
133.06400627	-1.71941300
133.14400627	-1.71941300
133.22400627	-1.54057400
133.30400627	-1.71941300
133.38400627	-1.71941300
133.46400627	-1.71941300
133.54400627	-1.71941300
133.62400627	-1.71941300
133.70400627	-1.71941300
133.78400627	-1.71941300
133.86400627	-1.71941300
133.94400627	-1.71941300
134.02400626	-1.71941300
134.10400626	-1.71941300
134.18400626	-1.89886200
134.26400626	-1.89886200
134.34400626	-1.89886200
134.42400626	-1.89886200
134.50400626	-1.89886200
134.58400626	-1.89886200
134.66400626	-1.89886200
134.74400626	-1.89886200
134.82400626	-1.89886200
134.90400626	-1.89886200
134.98400626	-1.89886200
135.06400626	-1.89886200
135.14400626	-1.89886200
135.22400626	-1.89886200
135.30400626	-1.89886200
135.38400626	-1.89886200
135.46400626	-1.89886200
135.54400626	-1.89886200
135.62400625	-2.07770000
135.70400625	-2.07770000
135.78400625	-2.07770000
135.86400625	-1.89886200
135.94400625	-2.07770000
136.02400625	-2.07770000
136.10400625	-2.07770000
136.18400625	-2.07770000
136.26400625	-2.07770000
136.34400625	-2.07770000
136.42400625	-2.07770000
136.50400625	-2.07770000
136.58400625	-2.07770000
136.66400625	-2.25714900
136.74400625	-2.07770000
136.82400625	-2.25714900
136.90400625	-2.25714900
136.98400625	-2.25714900
137.06400625	-2.25714900
137.14400625	-2.25714900
137.22400625	-2.25714900
137.30400624	-2.25714900
137.38400624	-2.25714900
137.46400624	-2.25714900
137.54400624	-2.25714900
137.62400624	-2.25714900
137.70400624	-2.25714900
137.78400624	-2.43598700
137.86400624	-2.43598700
137.94400624	-2.43598700
138.02400624	-2.25714900
138.10400624	-2.43598700
138.18400624	-2.43598700
138.26400624	-2.43598700
138.34400624	-2.43598700
138.42400624	-2.43598700
138.50400624	-2.43598700
138.58400624	-2.43598700
138.66400624	-2.43598700
138.74400624	-2.43598700
138.82400624	-2.43598700
138.90400623	-2.43598700
138.98400623	-2.43598700
139.06400623	-2.61543600
139.14400623	-2.43598700
139.22400623	-2.61543600
139.30400623	-2.61543600
139.38400623	-2.61543600
139.46400623	-2.61543600
139.54400623	-2.61543600
139.62400623	-2.61543600
139.70400623	-2.61543600
139.78400623	-2.61543600
139.86400623	-2.61543600
139.94400623	-2.61543600
140.02400623	-2.61543600
140.10400623	-2.61543600
140.18400623	-2.61543600
140.26400623	-2.61543600
140.34400623	-2.61543600
140.42400623	-2.61543600
140.50400623	-2.61543600
140.58400622	-2.79427500
140.66400622	-2.79427500
140.74400622	-2.79427500
140.82400622	-2.79427500
140.90400622	-2.79427500
140.98400622	-2.79427500
141.06400622	-2.79427500
141.14400622	-2.79427500
141.22400622	-2.79427500
141.30400622	-2.79427500
141.38400622	-2.79427500
141.46400622	-2.79427500
141.54400622	-2.79427500
141.62400622	-2.79427500
141.70400622	-2.79427500
141.78400622	-2.79427500
141.86400622	-2.79427500
141.94400622	-2.79427500
142.02400622	-2.79427500
142.10400622	-2.79427500
142.18400622	-2.79427500
142.26400621	-2.79427500
142.34400621	-2.97372400
142.42400621	-2.97372400
142.50400621	-2.97372400
142.58400621	-2.97372400
142.66400621	-2.97372400
142.74400621	-2.97372400
142.82400621	-3.15256200
142.90400621	-2.97372400
142.98400621	-3.15256200
143.06400621	-2.97372400
143.14400621	-3.15256200
143.22400621	-3.15256200
143.30400621	-2.97372400
143.38400621	-3.15256200
143.46400621	-3.15256200
143.54400621	-3.15256200
143.62400621	-3.15256200
143.70400621	-3.15256200
143.78400621	-3.15256200
143.86400620	-3.15256200
143.94400620	-3.15256200
144.02400620	-3.15256200
144.10400620	-3.15256200
144.18400620	-3.15256200
144.26400620	-3.15256200
144.34400620	-3.15256200
144.42400620	-3.15256200
144.50400620	-3.15256200
144.58400620	-3.33201100
144.66400620	-3.33201100
144.74400620	-3.33201100
144.82400620	-3.33201100
144.90400620	-3.33201100
144.98400620	-3.33201100
145.06400620	-3.33201100
145.14400620	-3.33201100
145.22400620	-3.33201100
145.30400620	-3.33201100
145.38400620	-3.33201100
145.46400620	-3.33201100
145.54400619	-3.33201100
145.62400619	-3.33201100
145.70400619	-3.33201100
145.78400619	-3.33201100
145.86400619	-3.33201100
145.94400619	-3.33201100
146.02400619	-3.51084900
146.10400619	-3.51084900
146.18400619	-3.51084900
146.26400619	-3.51084900
146.34400619	-3.51084900
146.42400619	-3.51084900
146.50400619	-3.51084900
146.58400619	-3.51084900
146.66400619	-3.51084900
146.74400619	-3.51084900
146.82400619	-3.51084900
146.90400619	-3.51084900
146.98400619	-3.51084900
147.06400619	-3.51084900
147.14400618	-3.51084900
147.22400618	-3.51084900
147.30400618	-3.51084900
147.38400618	-3.51084900
147.46400618	-3.51084900
147.54400618	-3.69029800
147.62400618	-3.51084900
147.70400618	-3.51084900
147.78400618	-3.69029800
147.86400618	-3.69029800
147.94400618	-3.69029800
148.02400618	-3.69029800
148.10400618	-3.69029800
148.18400618	-3.69029800
148.26400618	-3.69029800
148.34400618	-3.69029800
148.42400618	-3.69029800
148.50400618	-3.69029800
148.58400618	-3.69029800
148.66400618	-3.69029800
148.74400618	-3.69029800
148.82400617	-3.69029800
148.90400617	-3.86913700
148.98400617	-3.86913700
149.06400617	-3.69029800
149.14400617	-3.69029800
149.22400617	-3.69029800
149.30400617	-3.86913700
149.38400617	-3.86913700
149.46400617	-3.86913700
149.54400617	-3.86913700
149.62400617	-3.86913700
149.70400617	-3.86913700
149.78400617	-3.86913700
149.86400617	-3.86913700
149.94400617	-3.86913700
150.02400617	-3.86913700
150.10400617	-3.86913700
150.18400617	-3.86913700
150.26400617	-3.86913700
150.34400617	-4.04858500
150.42400616	-4.04858500
150.50400616	-4.04858500
150.58400616	-4.04858500
150.66400616	-4.04858500
150.74400616	-4.04858500
150.82400616	-4.04858500
150.90400616	-4.04858500
150.98400616	-4.04858500
151.06400616	-4.04858500
151.14400616	-4.04858500
151.22400616	-4.04858500
151.30400616	-4.04858500
151.38400616	-4.04858500
151.46400616	-4.04858500
151.54400616	-4.04858500
151.62400616	-4.04858500
151.70400616	-4.04858500
151.78400616	-4.04858500
151.86400616	-4.22742400
151.94400616	-4.22742400
152.02400616	-4.04858500
152.10400615	-4.04858500
152.18400615	-4.22742400
152.26400615	-4.22742400
152.34400615	-4.22742400
152.42400615	-4.22742400
152.50400615	-4.22742400
152.58400615	-4.22742400
152.66400615	-4.22742400
152.74400615	-4.22742400
152.82400615	-4.22742400
152.90400615	-4.22742400
152.98400615	-4.22742400
153.06400615	-4.22742400
153.14400615	-4.22742400
153.22400615	-4.22742400
153.30400615	-4.22742400
153.38400615	-4.22742400
153.46400615	-4.22742400
153.54400615	-4.22742400
153.62400615	-4.22742400
153.70400615	-4.22742400
153.78400614	-4.40687300
153.86400614	-4.22742400
153.94400614	-4.22742400
154.02400614	-4.22742400
154.10400614	-4.22742400
154.18400614	-4.22742400
154.26400614	-4.40687300
154.34400614	-4.40687300
154.42400614	-4.58571100
154.50400614	-4.22742400
154.58400614	-4.40687300
154.66400614	-4.40687300
154.74400614	-4.40687300
154.82400614	-4.40687300
154.90400614	-4.58571100
154.98400614	-4.40687300
155.06400614	-4.40687300
155.14400614	-4.40687300
155.22400614	-4.40687300
155.30400614	-4.40687300
155.38400613	-4.40687300
155.46400613	-4.58571100
155.54400613	-4.58571100
155.62400613	-4.58571100
155.70400613	-4.40687300
155.78400613	-4.58571100
155.86400613	-4.58571100
155.94400613	-4.58571100
156.02400613	-4.58571100
156.10400613	-4.58571100
156.18400613	-4.58571100
156.26400613	-4.58571100
156.34400613	-4.58571100
156.42400613	-4.58571100
156.50400613	-4.58571100
156.58400613	-4.58571100
156.66400613	-4.58571100
156.74400613	-4.58571100
156.82400613	-4.58571100
156.90400613	-4.76516000
156.98400613	-4.58571100
157.06400612	-4.76516000
157.14400612	-4.76516000
157.22400612	-4.58571100
157.30400612	-4.76516000
157.38400612	-4.76516000
157.46400612	-4.76516000
157.54400612	-4.76516000
157.62400612	-4.76516000
157.70400612	-4.76516000
157.78400612	-4.76516000
157.86400612	-4.76516000
157.94400612	-4.76516000
158.02400612	-4.76516000
158.10400612	-4.76516000
158.18400612	-4.76516000
158.26400612	-4.76516000
158.34400612	-4.76516000
158.42400612	-4.76516000
158.50400612	-4.76516000
158.58400612	-4.76516000
158.66400611	-4.76516000
158.74400611	-4.76516000
158.82400611	-4.94399800
158.90400611	-4.76516000
158.98400611	-4.76516000
159.06400611	-4.76516000
159.14400611	-4.76516000
159.22400611	-4.76516000
159.30400611	-4.94399800
159.38400611	-4.76516000
159.46400611	-4.76516000
159.54400611	-4.94399800
159.62400611	-4.94399800
159.70400611	-4.94399800
159.78400611	-4.94399800
159.86400611	-4.94399800
159.94400611	-4.94399800
160.02400611	-4.94399800
160.10400611	-4.94399800
160.18400611	-4.94399800
160.26400611	-4.94399800
160.34400610	-4.94399800
160.42400610	-4.94399800
160.50400610	-4.94399800
160.58400610	-4.94399800
160.66400610	-4.94399800
160.74400610	-4.94399800
160.82400610	-4.94399800
160.90400610	-4.94399800
160.98400610	-4.94399800
161.06400610	-4.94399800
161.14400610	-4.94399800
161.22400610	-4.94399800
161.30400610	-4.94399800
161.38400610	-4.94399800
161.46400610	-4.94399800
161.54400610	-4.94399800
161.62400610	-4.94399800
161.70400610	-5.12344700
161.78400610	-4.94399800
161.86400610	-4.94399800
161.94400609	-5.12344700
162.02400609	-5.12344700
162.10400609	-5.12344700
162.18400609	-5.12344700
162.26400609	-5.12344700
162.34400609	-5.12344700
162.42400609	-5.12344700
162.50400609	-5.12344700
162.58400609	-5.12344700
162.66400609	-5.12344700
162.74400609	-5.12344700
162.82400609	-5.12344700
162.90400609	-5.12344700
162.98400609	-5.12344700
163.06400609	-5.12344700
163.14400609	-5.12344700
163.22400609	-5.12344700
163.30400609	-5.12344700
163.38400609	-5.30228600
163.46400609	-5.12344700
163.54400609	-5.30228600
163.62400608	-5.12344700
163.70400608	-5.30228600
163.78400608	-5.30228600
163.86400608	-5.12344700
163.94400608	-5.30228600
164.02400608	-5.30228600
164.10400608	-5.12344700
164.18400608	-5.12344700
164.26400608	-5.12344700
164.34400608	-5.30228600
164.42400608	-5.30228600
164.50400608	-5.30228600
164.58400608	-5.30228600
164.66400608	-5.30228600
164.74400608	-5.30228600
164.82400608	-5.30228600
164.90400608	-5.30228600
164.98400608	-5.30228600
165.06400608	-5.30228600
165.14400608	-5.30228600
165.22400607	-5.30228600
165.30400607	-5.30228600
165.38400607	-5.30228600
165.46400607	-5.30228600
165.54400607	-5.30228600
165.62400607	-5.30228600
165.70400607	-5.30228600
165.78400607	-5.30228600
165.86400607	-5.30228600
165.94400607	-5.30228600
166.02400607	-5.48112400
166.10400607	-5.48112400
166.18400607	-5.30228600
166.26400607	-5.30228600
166.34400607	-5.48112400
166.42400607	-5.48112400
166.50400607	-5.30228600
166.58400607	-5.30228600
166.66400607	-5.30228600
166.74400607	-5.30228600
166.82400607	-5.48112400
166.90400606	-5.48112400
166.98400606	-5.48112400
167.06400606	-5.48112400
167.14400606	-5.48112400
167.22400606	-5.48112400
167.30400606	-5.48112400
167.38400606	-5.48112400
167.46400606	-5.48112400
167.54400606	-5.48112400
167.62400606	-5.48112400
167.70400606	-5.48112400
167.78400606	-5.48112400
167.86400606	-5.48112400
167.94400606	-5.48112400
168.02400606	-5.48112400
168.10400606	-5.48112400
168.18400606	-5.48112400
168.26400606	-5.48112400
168.34400606	-5.48112400
168.42400606	-5.48112400
168.50400606	-5.48112400
168.58400605	-5.48112400
168.66400605	-5.48112400
168.74400605	-5.48112400
168.82400605	-5.48112400
168.90400605	-5.48112400
168.98400605	-5.48112400
169.06400605	-5.48112400
169.14400605	-5.48112400
169.22400605	-5.48112400
169.30400605	-5.66057300
169.38400605	-5.66057300
169.46400605	-5.48112400
169.54400605	-5.48112400
169.62400605	-5.48112400
169.70400605	-5.66057300
169.78400605	-5.66057300
169.86400605	-5.48112400
169.94400605	-5.48112400
170.02400605	-5.48112400
170.10400605	-5.48112400
170.18400604	-5.48112400
170.26400604	-5.48112400
170.34400604	-5.48112400
170.42400604	-5.66057300
170.50400604	-5.66057300
170.58400604	-5.66057300
170.66400604	-5.66057300
170.74400604	-5.66057300
170.82400604	-5.66057300
170.90400604	-5.66057300
170.98400604	-5.66057300
171.06400604	-5.66057300
171.14400604	-5.66057300
171.22400604	-5.66057300
171.30400604	-5.48112400
171.38400604	-5.66057300
171.46400604	-5.66057300
171.54400604	-5.66057300
171.62400604	-5.66057300
171.70400604	-5.66057300
171.78400604	-5.66057300
171.86400603	-5.66057300
171.94400603	-5.66057300
172.02400603	-5.66057300
172.10400603	-5.66057300
172.18400603	-5.66057300
172.26400603	-5.66057300
172.34400603	-5.48112400
172.42400603	-5.66057300
172.50400603	-5.66057300
172.58400603	-5.66057300
172.66400603	-5.66057300
172.74400603	-5.66057300
172.82400603	-5.66057300
172.90400603	-5.66057300
172.98400603	-5.66057300
173.06400603	-5.66057300
173.14400603	-5.66057300
173.22400603	-5.66057300
173.30400603	-5.66057300
173.38400603	-5.66057300
173.46400602	-5.66057300
173.54400602	-5.66057300
173.62400602	-5.66057300
173.70400602	-5.66057300
173.78400602	-5.66057300
173.86400602	-5.66057300
173.94400602	-5.66057300
174.02400602	-5.66057300
174.10400602	-5.66057300
174.18400602	-5.66057300
174.26400602	-5.66057300
174.34400602	-5.66057300
174.42400602	-5.66057300
174.50400602	-5.66057300
174.58400602	-5.66057300
174.66400602	-5.66057300
174.74400602	-5.66057300
174.82400602	-5.66057300
174.90400602	-5.66057300
174.98400602	-5.66057300
175.06400602	-5.66057300
175.14400601	-5.66057300
175.22400601	-5.66057300
175.30400601	-5.66057300
175.38400601	-5.66057300
175.46400601	-5.66057300
175.54400601	-5.66057300
175.62400601	-5.66057300
175.70400601	-5.66057300
175.78400601	-5.66057300
175.86400601	-5.66057300
175.94400601	-5.66057300
176.02400601	-5.66057300
176.10400601	-5.66057300
176.18400601	-5.66057300
176.26400601	-5.66057300
176.34400601	-5.66057300
176.42400601	-5.66057300
176.50400601	-5.83941200
176.58400601	-5.66057300
176.66400601	-5.66057300
176.74400600	-5.66057300
176.82400600	-5.66057300
176.90400600	-5.66057300
176.98400600	-5.66057300
177.06400600	-5.66057300
177.14400600	-5.66057300
177.22400600	-5.66057300
177.30400600	-5.66057300
177.38400600	-5.83941200
177.46400600	-5.66057300
177.54400600	-5.83941200
177.62400600	-5.66057300
177.70400600	-5.66057300
177.78400600	-5.66057300
177.86400600	-5.66057300
177.94400600	-5.66057300
178.02400600	-5.66057300
178.10400600	-5.66057300
178.18400600	-5.66057300
178.26400600	-5.66057300
178.34400600	-5.66057300
178.42400599	-5.66057300
178.50400599	-5.66057300
178.58400599	-5.66057300
178.66400599	-5.66057300
178.74400599	-5.66057300
178.82400599	-5.66057300
178.90400599	-5.66057300
178.98400599	-5.66057300
179.06400599	-5.66057300
179.14400599	-5.83941200
179.22400599	-5.66057300
179.30400599	-5.66057300
179.38400599	-5.66057300
179.46400599	-5.66057300
179.54400599	-5.66057300
179.62400599	-5.66057300
179.70400599	-5.83941200
179.78400599	-5.66057300
179.86400599	-5.66057300
179.94400599	-5.83941200
180.02400599	-5.66057300
180.10400598	-5.66057300
180.18400598	-5.66057300
180.26400598	-5.66057300
180.34400598	-5.83941200
180.42400598	-5.83941200
180.50400598	-5.66057300
180.58400598	-5.66057300
180.66400598	-5.66057300
180.74400598	-5.66057300
180.82400598	-5.66057300
180.90400598	-5.66057300
180.98400598	-5.83941200
181.06400598	-5.66057300
181.14400598	-5.66057300
181.22400598	-5.83941200
181.30400598	-5.83941200
181.38400598	-5.83941200
181.46400598	-5.66057300
181.54400598	-5.66057300
181.62400598	-5.66057300
181.70400597	-5.66057300
181.78400597	-5.66057300
181.86400597	-5.66057300
181.94400597	-5.66057300
182.02400597	-5.66057300
182.10400597	-5.66057300
182.18400597	-5.66057300
182.26400597	-5.66057300
182.34400597	-5.66057300
182.42400597	-5.66057300
182.50400597	-5.66057300
182.58400597	-5.66057300
182.66400597	-5.66057300
182.74400597	-5.66057300
182.82400597	-5.66057300
182.90400597	-5.66057300
182.98400597	-5.66057300
183.06400597	-5.66057300
183.14400597	-5.66057300
183.22400597	-5.66057300
183.30400597	-5.83941200
183.38400596	-5.66057300
183.46400596	-5.83941200
183.54400596	-5.66057300
183.62400596	-5.83941200
183.70400596	-5.66057300
183.78400596	-5.83941200
183.86400596	-5.66057300
183.94400596	-5.66057300
184.02400596	-5.66057300
184.10400596	-5.66057300
184.18400596	-5.66057300
184.26400596	-5.66057300
184.34400596	-5.66057300
184.42400596	-5.66057300
184.50400596	-5.66057300
184.58400596	-5.66057300
184.66400596	-5.66057300
184.74400596	-5.66057300
184.82400596	-5.66057300
184.90400596	-5.66057300
184.98400595	-5.66057300
185.06400595	-5.66057300
185.14400595	-5.66057300
185.22400595	-5.66057300
185.30400595	-5.66057300
185.38400595	-5.66057300
185.46400595	-5.66057300
185.54400595	-5.66057300
185.62400595	-5.66057300
185.70400595	-5.66057300
185.78400595	-5.66057300
185.86400595	-5.66057300
185.94400595	-5.66057300
186.02400595	-5.66057300
186.10400595	-5.66057300
186.18400595	-5.66057300
186.26400595	-5.66057300
186.34400595	-5.66057300
186.42400595	-5.66057300
186.50400595	-5.66057300
186.58400595	-5.66057300
186.66400594	-5.66057300
186.74400594	-5.66057300
186.82400594	-5.66057300
186.90400594	-5.66057300
186.98400594	-5.66057300
187.06400594	-5.66057300
187.14400594	-5.66057300
187.22400594	-5.66057300
187.30400594	-5.66057300
187.38400594	-5.66057300
187.46400594	-5.66057300
187.54400594	-5.66057300
187.62400594	-5.66057300
187.70400594	-5.66057300
187.78400594	-5.66057300
187.86400594	-5.66057300
187.94400594	-5.66057300
188.02400594	-5.66057300
188.10400594	-5.66057300
188.18400594	-5.66057300
188.26400593	-5.66057300
188.34400593	-5.66057300
188.42400593	-5.66057300
188.50400593	-5.66057300
188.58400593	-5.66057300
188.66400593	-5.66057300
188.74400593	-5.66057300
188.82400593	-5.66057300
188.90400593	-5.66057300
188.98400593	-5.66057300
189.06400593	-5.66057300
189.14400593	-5.66057300
189.22400593	-5.66057300
189.30400593	-5.66057300
189.38400593	-5.66057300
189.46400593	-5.66057300
189.54400593	-5.66057300
189.62400593	-5.66057300
189.70400593	-5.66057300
189.78400593	-5.66057300
189.86400593	-5.66057300
189.94400592	-5.48112400
190.02400592	-5.66057300
190.10400592	-5.66057300
190.18400592	-5.48112400
190.26400592	-5.48112400
190.34400592	-5.66057300
190.42400592	-5.48112400
190.50400592	-5.66057300
190.58400592	-5.66057300
190.66400592	-5.48112400
190.74400592	-5.48112400
190.82400592	-5.48112400
190.90400592	-5.66057300
190.98400592	-5.48112400
191.06400592	-5.48112400
191.14400592	-5.48112400
191.22400592	-5.48112400
191.30400592	-5.48112400
191.38400592	-5.48112400
191.46400592	-5.48112400
191.54400592	-5.48112400
191.62400591	-5.48112400
191.70400591	-5.48112400
191.78400591	-5.48112400
191.86400591	-5.48112400
191.94400591	-5.48112400
192.02400591	-5.48112400
192.10400591	-5.48112400
192.18400591	-5.48112400
192.26400591	-5.48112400
192.34400591	-5.48112400
192.42400591	-5.48112400
192.50400591	-5.48112400
192.58400591	-5.48112400
192.66400591	-5.48112400
192.74400591	-5.48112400
192.82400591	-5.48112400
192.90400591	-5.30228600
192.98400591	-5.48112400
193.06400591	-5.48112400
193.14400591	-5.48112400
193.22400590	-5.48112400
193.30400590	-5.48112400
193.38400590	-5.48112400
193.46400590	-5.48112400
193.54400590	-5.48112400
193.62400590	-5.48112400
193.70400590	-5.48112400
193.78400590	-5.30228600
193.86400590	-5.48112400
193.94400590	-5.48112400
194.02400590	-5.48112400
194.10400590	-5.48112400
194.18400590	-5.48112400
194.26400590	-5.30228600
194.34400590	-5.48112400
194.42400590	-5.30228600
194.50400590	-5.48112400
194.58400590	-5.48112400
194.66400590	-5.30228600
194.74400590	-5.30228600
194.82400590	-5.30228600
194.90400589	-5.48112400
194.98400589	-5.30228600
195.06400589	-5.30228600
195.14400589	-5.30228600
195.22400589	-5.48112400
195.30400589	-5.30228600
195.38400589	-5.30228600
195.46400589	-5.30228600
195.54400589	-5.30228600
195.62400589	-5.30228600
195.70400589	-5.30228600
195.78400589	-5.30228600
195.86400589	-5.30228600
195.94400589	-5.30228600
196.02400589	-5.30228600
196.10400589	-5.30228600
196.18400589	-5.30228600
196.26400589	-5.30228600
196.34400589	-5.30228600
196.42400589	-5.30228600
196.50400588	-5.12344700
196.58400588	-5.12344700
196.66400588	-5.30228600
196.74400588	-5.30228600
196.82400588	-5.12344700
196.90400588	-5.30228600
196.98400588	-5.12344700
197.06400588	-5.12344700
197.14400588	-5.30228600
197.22400588	-5.30228600
197.30400588	-5.12344700
197.38400588	-5.12344700
197.46400588	-5.30228600
197.54400588	-5.30228600
197.62400588	-5.12344700
197.70400588	-5.12344700
197.78400588	-5.12344700
197.86400588	-5.12344700
197.94400588	-5.12344700
198.02400588	-5.12344700
198.10400588	-5.12344700
198.18400587	-5.12344700
198.26400587	-5.12344700
198.34400587	-5.12344700
198.42400587	-5.12344700
198.50400587	-5.12344700
198.58400587	-5.12344700
198.66400587	-5.12344700
198.74400587	-5.12344700
198.82400587	-5.12344700
198.90400587	-4.94399800
198.98400587	-5.12344700
199.06400587	-5.12344700
199.14400587	-4.94399800
199.22400587	-5.12344700
199.30400587	-5.12344700
199.38400587	-5.12344700
199.46400587	-4.94399800
199.54400587	-5.12344700
199.62400587	-4.94399800
199.70400587	-4.94399800
199.78400586	-4.94399800
199.86400586	-4.94399800
199.94400586	-4.94399800
200.02400586	-4.94399800
200.10400586	-4.94399800
200.18400586	-4.94399800
200.26400586	-4.94399800
200.34400586	-4.94399800
200.42400586	-4.94399800
200.50400586	-4.94399800
200.58400586	-4.94399800
200.66400586	-4.94399800
200.74400586	-4.94399800
200.82400586	-4.94399800
200.90400586	-4.94399800
200.98400586	-4.94399800
201.06400586	-4.94399800
201.14400586	-4.94399800
201.22400586	-4.94399800
201.30400586	-4.94399800
201.38400586	-4.94399800
201.46400585	-4.94399800
201.54400585	-4.94399800
201.62400585	-4.94399800
201.70400585	-4.76516000
201.78400585	-4.76516000
201.86400585	-4.94399800
201.94400585	-4.76516000
202.02400585	-4.94399800
202.10400585	-4.76516000
202.18400585	-4.76516000
202.26400585	-4.94399800
202.34400585	-4.76516000
202.42400585	-4.76516000
202.50400585	-4.76516000
202.58400585	-4.76516000
202.66400585	-4.76516000
202.74400585	-4.76516000
202.82400585	-4.76516000
202.90400585	-4.76516000
202.98400585	-4.76516000
203.06400585	-4.76516000
203.14400584	-4.76516000
203.22400584	-4.76516000
203.30400584	-4.76516000
203.38400584	-4.76516000
203.46400584	-4.76516000
203.54400584	-4.76516000
203.62400584	-4.76516000
203.70400584	-4.76516000
203.78400584	-4.76516000
203.86400584	-4.76516000
203.94400584	-4.76516000
204.02400584	-4.76516000
204.10400584	-4.58571100
204.18400584	-4.76516000
204.26400584	-4.76516000
204.34400584	-4.58571100
204.42400584	-4.76516000
204.50400584	-4.58571100
204.58400584	-4.58571100
204.66400584	-4.58571100
204.74400583	-4.58571100
204.82400583	-4.58571100
204.90400583	-4.58571100
204.98400583	-4.58571100
205.06400583	-4.58571100
205.14400583	-4.58571100
205.22400583	-4.58571100
205.30400583	-4.58571100
205.38400583	-4.58571100
205.46400583	-4.58571100
205.54400583	-4.58571100
205.62400583	-4.58571100
205.70400583	-4.58571100
205.78400583	-4.58571100
205.86400583	-4.58571100
205.94400583	-4.58571100
206.02400583	-4.58571100
206.10400583	-4.40687300
206.18400583	-4.58571100
206.26400583	-4.40687300
206.34400583	-4.40687300
206.42400582	-4.58571100
206.50400582	-4.58571100
206.58400582	-4.40687300
206.66400582	-4.40687300
206.74400582	-4.40687300
206.82400582	-4.22742400
206.90400582	-4.40687300
206.98400582	-4.40687300
207.06400582	-4.40687300
207.14400582	-4.22742400
207.22400582	-4.22742400
207.30400582	-4.22742400
207.38400582	-4.40687300
207.46400582	-4.22742400
207.54400582	-4.22742400
207.62400582	-4.22742400
207.70400582	-4.22742400
207.78400582	-4.22742400
207.86400582	-4.22742400
207.94400582	-4.22742400
208.02400581	-4.22742400
208.10400581	-4.22742400
208.18400581	-4.22742400
208.26400581	-4.22742400
208.34400581	-4.22742400
208.42400581	-4.22742400
208.50400581	-4.22742400
208.58400581	-4.22742400
208.66400581	-4.22742400
208.74400581	-4.22742400
208.82400581	-4.22742400
208.90400581	-4.22742400
208.98400581	-4.22742400
209.06400581	-4.22742400
209.14400581	-4.22742400
209.22400581	-4.22742400
209.30400581	-4.22742400
209.38400581	-4.22742400
209.46400581	-4.22742400
209.54400581	-4.22742400
209.62400581	-4.04858500
209.70400580	-4.04858500
209.78400580	-4.04858500
209.86400580	-4.04858500
209.94400580	-4.04858500
210.02400580	-4.04858500
210.10400580	-4.04858500
210.18400580	-4.04858500
210.26400580	-4.04858500
210.34400580	-4.04858500
210.42400580	-4.04858500
210.50400580	-4.04858500
210.58400580	-4.04858500
210.66400580	-4.04858500
210.74400580	-4.04858500
210.82400580	-4.04858500
210.90400580	-4.04858500
210.98400580	-4.04858500
211.06400580	-4.04858500
211.14400580	-4.04858500
211.22400580	-4.04858500
211.30400579	-4.04858500
211.38400579	-3.86913700
211.46400579	-4.04858500
211.54400579	-4.04858500
211.62400579	-3.86913700
211.70400579	-3.86913700
211.78400579	-3.86913700
211.86400579	-3.86913700
211.94400579	-3.86913700
212.02400579	-3.86913700
212.10400579	-3.86913700
212.18400579	-3.86913700
212.26400579	-3.86913700
212.34400579	-3.86913700
212.42400579	-3.86913700
212.50400579	-3.86913700
212.58400579	-3.86913700
212.66400579	-3.86913700
212.74400579	-3.86913700
212.82400579	-3.86913700
212.90400579	-3.86913700
212.98400578	-3.69029800
213.06400578	-3.86913700
213.14400578	-3.86913700
213.22400578	-3.69029800
213.30400578	-3.69029800
213.38400578	-3.69029800
213.46400578	-3.86913700
213.54400578	-3.69029800
213.62400578	-3.69029800
213.70400578	-3.69029800
213.78400578	-3.69029800
213.86400578	-3.51084900
213.94400578	-3.51084900
214.02400578	-3.69029800
214.10400578	-3.69029800
214.18400578	-3.69029800
214.26400578	-3.69029800
214.34400578	-3.51084900
214.42400578	-3.51084900
214.50400578	-3.69029800
214.58400578	-3.51084900
214.66400577	-3.51084900
214.74400577	-3.51084900
214.82400577	-3.51084900
214.90400577	-3.51084900
214.98400577	-3.51084900
215.06400577	-3.51084900
215.14400577	-3.51084900
215.22400577	-3.51084900
215.30400577	-3.51084900
215.38400577	-3.51084900
215.46400577	-3.51084900
215.54400577	-3.51084900
215.62400577	-3.51084900
215.70400577	-3.33201100
215.78400577	-3.51084900
215.86400577	-3.51084900
215.94400577	-3.33201100
216.02400577	-3.51084900
216.10400577	-3.33201100
216.18400577	-3.51084900
216.26400576	-3.33201100
216.34400576	-3.33201100
216.42400576	-3.33201100
216.50400576	-3.33201100
216.58400576	-3.33201100
216.66400576	-3.33201100
216.74400576	-3.33201100
216.82400576	-3.33201100
216.90400576	-3.33201100
216.98400576	-3.33201100
217.06400576	-3.33201100
217.14400576	-3.33201100
217.22400576	-3.33201100
217.30400576	-3.33201100
217.38400576	-3.33201100
217.46400576	-3.33201100
217.54400576	-3.33201100
217.62400576	-3.15256200
217.70400576	-3.15256200
217.78400576	-3.15256200
217.86400576	-3.15256200
217.94400575	-3.15256200
218.02400575	-3.15256200
218.10400575	-3.15256200
218.18400575	-3.15256200
218.26400575	-3.15256200
218.34400575	-3.15256200
218.42400575	-3.15256200
218.50400575	-3.15256200
218.58400575	-3.15256200
218.66400575	-3.15256200
218.74400575	-3.15256200
218.82400575	-3.15256200
218.90400575	-3.15256200
218.98400575	-3.15256200
219.06400575	-3.15256200
219.14400575	-2.97372400
219.22400575	-3.15256200
219.30400575	-3.15256200
219.38400575	-3.15256200
219.46400575	-2.97372400
219.54400574	-2.97372400
219.62400574	-2.97372400
219.70400574	-2.97372400
219.78400574	-2.97372400
219.86400574	-2.97372400
219.94400574	-2.97372400
220.02400574	-2.97372400
220.10400574	-2.97372400
220.18400574	-2.97372400
220.26400574	-2.97372400
220.34400574	-2.97372400
220.42400574	-2.79427500
220.50400574	-2.79427500
220.58400574	-2.79427500
220.66400574	-2.79427500
220.74400574	-2.79427500
220.82400574	-2.79427500
220.90400574	-2.79427500
220.98400574	-2.79427500
221.06400574	-2.79427500
221.14400574	-2.79427500
221.22400573	-2.79427500
221.30400573	-2.79427500
221.38400573	-2.79427500
221.46400573	-2.79427500
221.54400573	-2.79427500
221.62400573	-2.79427500
221.70400573	-2.79427500
221.78400573	-2.79427500
221.86400573	-2.79427500
221.94400573	-2.61543600
222.02400573	-2.61543600
222.10400573	-2.61543600
222.18400573	-2.79427500
222.26400573	-2.79427500
222.34400573	-2.61543600
222.42400573	-2.61543600
222.50400573	-2.79427500
222.58400573	-2.61543600
222.66400573	-2.61543600
222.74400573	-2.61543600
222.82400572	-2.61543600
222.90400572	-2.61543600
222.98400572	-2.43598700
223.06400572	-2.61543600
223.14400572	-2.61543600
223.22400572	-2.61543600
223.30400572	-2.61543600
223.38400572	-2.61543600
223.46400572	-2.61543600
223.54400572	-2.61543600
223.62400572	-2.61543600
223.70400572	-2.43598700
223.78400572	-2.43598700
223.86400572	-2.43598700
223.94400572	-2.43598700
224.02400572	-2.43598700
224.10400572	-2.43598700
224.18400572	-2.43598700
224.26400572	-2.43598700
224.34400572	-2.43598700
224.42400572	-2.43598700
224.50400571	-2.43598700
224.58400571	-2.43598700
224.66400571	-2.43598700
224.74400571	-2.43598700
224.82400571	-2.43598700
224.90400571	-2.43598700
224.98400571	-2.25714900
225.06400571	-2.43598700
225.14400571	-2.43598700
225.22400571	-2.25714900
225.30400571	-2.43598700
225.38400571	-2.25714900
225.46400571	-2.25714900
225.54400571	-2.25714900
225.62400571	-2.25714900
225.70400571	-2.25714900
225.78400571	-2.25714900
225.86400571	-2.25714900
225.94400571	-2.25714900
226.02400571	-2.25714900
226.10400570	-2.07770000
226.18400570	-2.25714900
226.26400570	-2.25714900
226.34400570	-2.07770000
226.42400570	-2.25714900
226.50400570	-2.07770000
226.58400570	-2.07770000
226.66400570	-2.07770000
226.74400570	-2.07770000
226.82400570	-2.07770000
226.90400570	-2.07770000
226.98400570	-2.07770000
227.06400570	-2.07770000
227.14400570	-2.07770000
227.22400570	-1.89886200
227.30400570	-1.89886200
227.38400570	-2.07770000
227.46400570	-1.89886200
227.54400570	-1.89886200
227.62400570	-2.07770000
227.70400570	-1.89886200
227.78400569	-1.89886200
227.86400569	-1.89886200
227.94400569	-1.89886200
228.02400569	-1.89886200
228.10400569	-1.89886200
228.18400569	-1.89886200
228.26400569	-1.89886200
228.34400569	-1.89886200
228.42400569	-1.89886200
228.50400569	-1.71941300
228.58400569	-1.71941300
228.66400569	-1.89886200
228.74400569	-1.89886200
228.82400569	-1.89886200
228.90400569	-1.89886200
228.98400569	-1.89886200
229.06400569	-1.71941300
229.14400569	-1.71941300
229.22400569	-1.71941300
229.30400569	-1.71941300
229.38400569	-1.71941300
229.46400568	-1.71941300
229.54400568	-1.71941300
229.62400568	-1.71941300
229.70400568	-1.71941300
229.78400568	-1.71941300
229.86400568	-1.71941300
229.94400568	-1.71941300
230.02400568	-1.71941300
230.10400568	-1.71941300
230.18400568	-1.54057400
230.26400568	-1.71941300
230.34400568	-1.71941300
230.42400568	-1.71941300
230.50400568	-1.54057400
230.58400568	-1.54057400
230.66400568	-1.54057400
230.74400568	-1.54057400
230.82400568	-1.54057400
230.90400568	-1.54057400
230.98400568	-1.54057400
231.06400567	-1.36112500
231.14400567	-1.54057400
231.22400567	-1.36112500
231.30400567	-1.54057400
231.38400567	-1.54057400
231.46400567	-1.54057400
231.54400567	-1.36112500
231.62400567	-1.36112500
231.70400567	-1.36112500
231.78400567	-1.36112500
231.86400567	-1.36112500
231.94400567	-1.36112500
232.02400567	-1.36112500
232.10400567	-1.36112500
232.18400567	-1.36112500
232.26400567	-1.36112500
232.34400567	-1.36112500
232.42400567	-1.36112500
232.50400567	-1.36112500
232.58400567	-1.18228700
232.66400567	-1.36112500
232.74400566	-1.36112500
232.82400566	-1.36112500
232.90400566	-1.18228700
232.98400566	-1.18228700
233.06400566	-1.36112500
233.14400566	-1.18228700
233.22400566	-1.18228700
233.30400566	-1.18228700
233.38400566	-1.18228700
233.46400566	-1.18228700
233.54400566	-1.18228700
233.62400566	-1.18228700
233.70400566	-1.18228700
233.78400566	-1.18228700
233.86400566	-1.18228700
233.94400566	-1.18228700
234.02400566	-1.18228700
234.10400566	-1.00283800
234.18400566	-1.00283800
234.26400566	-1.00283800
234.34400565	-1.00283800
234.42400565	-1.18228700
234.50400565	-1.00283800
234.58400565	-1.00283800
234.66400565	-1.00283800
234.74400565	-1.00283800
234.82400565	-1.00283800
234.90400565	-1.00283800
234.98400565	-1.00283800
235.06400565	-1.00283800
235.14400565	-1.00283800
235.22400565	-1.00283800
235.30400565	-1.00283800
235.38400565	-0.82399980
235.46400565	-1.00283800
235.54400565	-1.00283800
235.62400565	-0.82399980
235.70400565	-0.82399980
235.78400565	-0.82399980
235.86400565	-0.82399980
235.94400565	-1.00283800
236.02400564	-0.64455090
236.10400564	-0.82399980
236.18400564	-0.82399980
236.26400564	-0.82399980
236.34400564	-0.82399980
236.42400564	-0.82399980
236.50400564	-0.82399980
236.58400564	-0.82399980
236.66400564	-0.64455090
236.74400564	-0.82399980
236.82400564	-0.64455090
236.90400564	-0.64455090
236.98400564	-0.64455090
237.06400564	-0.64455090
237.14400564	-0.64455090
237.22400564	-0.64455090
237.30400564	-0.64455090
237.38400564	-0.64455090
237.46400564	-0.64455090
237.54400564	-0.64455090
237.62400563	-0.64455090
237.70400563	-0.64455090
237.78400563	-0.64455090
237.86400563	-0.46571250
237.94400563	-0.64455090
238.02400563	-0.64455090
238.10400563	-0.46571250
238.18400563	-0.46571250
238.26400563	-0.64455090
238.34400563	-0.46571250
238.42400563	-0.46571250
238.50400563	-0.46571250
238.58400563	-0.46571250
238.66400563	-0.46571250
238.74400563	-0.46571250
238.82400563	-0.46571250
238.90400563	-0.46571250
238.98400563	-0.46571250
239.06400563	-0.46571250
239.14400563	-0.46571250
239.22400563	-0.46571250
239.30400562	-0.46571250
239.38400562	-0.46571250
239.46400562	-0.46571250
239.54400562	-0.46571250
239.62400562	-0.46571250
239.70400562	-0.28626360
239.78400562	-0.28626360
239.86400562	-0.46571250
239.94400562	-0.46571250
240.02400562	-0.28626360
240.10400562	-0.28626360
240.18400562	-0.28626360
240.26400562	-0.28626360
240.34400562	-0.28626360
240.42400562	-0.28626360
240.50400562	-0.28626360
240.58400562	-0.28626360
240.66400562	-0.28626360
240.74400562	-0.10742520
240.82400562	-0.28626360
240.90400562	-0.28626360
240.98400561	-0.10742520
241.06400561	-0.28626360
241.14400561	-0.28626360
241.22400561	-0.28626360
241.30400561	-0.10742520
241.38400561	-0.10742520
241.46400561	-0.10742520
241.54400561	-0.10742520
241.62400561	-0.10742520
241.70400561	-0.10742520
241.78400561	-0.10742520
241.86400561	-0.10742520
241.94400561	-0.10742520
242.02400561	0.07202368
242.10400561	0.07202368
242.18400561	0.07202368
242.26400561	-0.10742520
242.34400561	0.07202368
242.42400561	0.07202368
242.50400561	0.07202368
242.58400560	0.07202368
242.66400560	0.07202368
242.74400560	0.07202368
242.82400560	0.07202368
242.90400560	0.07202368
242.98400560	0.07202368
243.06400560	0.07202368
243.14400560	0.07202368
243.22400560	0.07202368
243.30400560	0.07202368
243.38400560	0.07202368
243.46400560	0.07202368
243.54400560	0.07202368
243.62400560	0.25086220
243.70400560	0.07202368
243.78400560	0.07202368
243.86400560	0.25086220
243.94400560	0.25086220
244.02400560	0.25086220
244.10400560	0.25086220
244.18400560	0.25086220
244.26400559	0.25086220
244.34400559	0.25086220
244.42400559	0.25086220
244.50400559	0.25086220
244.58400559	0.25086220
244.66400559	0.25086220
244.74400559	0.25086220
244.82400559	0.25086220
244.90400559	0.25086220
244.98400559	0.25086220
245.06400559	0.25086220
245.14400559	0.42970060
245.22400559	0.42970060
245.30400559	0.25086220
245.38400559	0.42970060
245.46400559	0.42970060
245.54400559	0.42970060
245.62400559	0.42970060
245.70400559	0.42970060
245.78400559	0.42970060
245.86400558	0.42970060
245.94400558	0.42970060
246.02400558	0.42970060
246.10400558	0.42970060
246.18400558	0.42970060
246.26400558	0.42970060
246.34400558	0.42970060
246.42400558	0.60853910
246.50400558	0.42970060
246.58400558	0.60853910
246.66400558	0.60853910
246.74400558	0.60853910
246.82400558	0.60853910
246.90400558	0.60853910
246.98400558	0.60853910
247.06400558	0.60853910
247.14400558	0.60853910
247.22400558	0.60853910
247.30400558	0.60853910
247.38400558	0.78737750
247.46400558	0.60853910
247.54400557	0.78737750
247.62400557	0.78737750
247.70400557	0.78737750
247.78400557	0.78737750
247.86400557	0.78737750
247.94400557	0.78737750
248.02400557	0.78737750
248.10400557	0.78737750
248.18400557	0.78737750
248.26400557	0.78737750
248.34400557	0.78737750
248.42400557	0.78737750
248.50400557	0.78737750
248.58400557	0.96682640
248.66400557	0.96682640
248.74400557	0.78737750
248.82400557	0.96682640
248.90400557	0.96682640
248.98400557	0.96682640
249.06400557	0.96682640
249.14400556	0.96682640
249.22400556	0.96682640
249.30400556	0.96682640
249.38400556	0.96682640
249.46400556	0.96682640
249.54400556	0.96682640
249.62400556	0.96682640
249.70400556	1.14566500
249.78400556	0.96682640
249.86400556	1.14566500
249.94400556	0.96682640
250.02400556	1.14566500
